70BCSV 	
// AQ6370B OPTICAL SPECTRUM ANALYZER //                 
25
"CTRWL",1500.000000
"SPAN", 400.000000
"START WL",1300.000000
"STOP WL",1700.000000
"WLFREQ", 0
"REFL",-44.2
"LSCL",10.0
"RESLN",1.000
"AVG",   1
"SMPLAUTO",      1
"SMPL",       2001
"SMPLINTVL",0.2000
"HIGH1"
"MEAS"
"LSUNT",0
"NMSKH","OFF"
"RESCOR",0
"RESPARM", 9859
"FREQPARM", 9859






"[TRACE DATA]"
1300.0000, -49.659
1300.2000, -49.720
1300.4000, -49.915
1300.6000, -50.032
1300.8000, -50.288
1301.0000, -50.284
1301.2000, -50.498
1301.4000, -50.380
1301.6000, -50.685
1301.8000, -51.015
1302.0000, -51.045
1302.2000, -51.166
1302.4000, -51.470
1302.6000, -51.783
1302.8000, -52.257
1303.0000, -52.426
1303.2000, -52.756
1303.4000, -53.142
1303.6000, -53.749
1303.8000, -54.440
1304.0000, -54.748
1304.2000, -55.706
1304.4000, -56.196
1304.6000, -56.800
1304.8000, -57.907
1305.0000, -58.595
1305.2000, -58.946
1305.4000, -59.906
1305.6000, -60.515
1305.8000, -60.701
1306.0000, -60.567
1306.2000, -60.223
1306.4000, -59.987
1306.6000, -59.036
1306.8000, -58.176
1307.0000, -57.411
1307.2000, -56.436
1307.4000, -55.731
1307.6000, -55.167
1307.8000, -54.378
1308.0000, -53.388
1308.2000, -52.933
1308.4000, -52.619
1308.6000, -51.705
1308.8000, -51.059
1309.0000, -50.740
1309.2000, -50.138
1309.4000, -49.923
1309.6000, -49.583
1309.8000, -49.152
1310.0000, -48.841
1310.2000, -48.910
1310.4000, -48.671
1310.6000, -48.575
1310.8000, -48.324
1311.0000, -48.220
1311.2000, -48.310
1311.4000, -48.353
1311.6000, -48.017
1311.8000, -48.002
1312.0000, -48.182
1312.2000, -48.029
1312.4000, -47.902
1312.6000, -47.900
1312.8000, -47.664
1313.0000, -47.718
1313.2000, -47.712
1313.4000, -47.338
1313.6000, -47.284
1313.8000, -47.284
1314.0000, -47.247
1314.2000, -46.993
1314.4000, -46.814
1314.6000, -46.779
1314.8000, -46.815
1315.0000, -46.834
1315.2000, -46.992
1315.4000, -46.521
1315.6000, -46.795
1315.8000, -46.819
1316.0000, -46.772
1316.2000, -46.849
1316.4000, -46.849
1316.6000, -46.892
1316.8000, -47.081
1317.0000, -47.419
1317.2000, -47.393
1317.4000, -47.367
1317.6000, -47.557
1317.8000, -47.683
1318.0000, -47.827
1318.2000, -47.950
1318.4000, -47.878
1318.6000, -47.978
1318.8000, -48.205
1319.0000, -48.209
1319.2000, -48.091
1319.4000, -48.126
1319.6000, -48.202
1319.8000, -48.160
1320.0000, -48.273
1320.2000, -48.009
1320.4000, -48.141
1320.6000, -48.108
1320.8000, -48.138
1321.0000, -48.054
1321.2000, -48.075
1321.4000, -48.157
1321.6000, -48.279
1321.8000, -48.252
1322.0000, -48.338
1322.2000, -48.400
1322.4000, -48.529
1322.6000, -48.602
1322.8000, -48.816
1323.0000, -48.893
1323.2000, -49.057
1323.4000, -49.211
1323.6000, -49.391
1323.8000, -49.417
1324.0000, -49.638
1324.2000, -49.617
1324.4000, -49.789
1324.6000, -49.819
1324.8000, -49.943
1325.0000, -49.831
1325.2000, -50.080
1325.4000, -50.055
1325.6000, -49.898
1325.8000, -49.890
1326.0000, -49.829
1326.2000, -49.812
1326.4000, -49.839
1326.6000, -49.879
1326.8000, -49.819
1327.0000, -49.760
1327.2000, -49.753
1327.4000, -49.702
1327.6000, -49.786
1327.8000, -49.787
1328.0000, -49.774
1328.2000, -50.017
1328.4000, -50.135
1328.6000, -50.157
1328.8000, -50.249
1329.0000, -50.299
1329.2000, -50.361
1329.4000, -50.634
1329.6000, -50.698
1329.8000, -50.761
1330.0000, -50.925
1330.2000, -51.057
1330.4000, -51.204
1330.6000, -51.399
1330.8000, -51.323
1331.0000, -51.422
1331.2000, -51.575
1331.4000, -51.696
1331.6000, -51.627
1331.8000, -51.615
1332.0000, -51.733
1332.2000, -51.605
1332.4000, -51.580
1332.6000, -51.507
1332.8000, -51.679
1333.0000, -51.557
1333.2000, -51.659
1333.4000, -51.814
1333.6000, -51.712
1333.8000, -51.758
1334.0000, -51.899
1334.2000, -51.950
1334.4000, -51.962
1334.6000, -52.251
1334.8000, -52.291
1335.0000, -52.542
1335.2000, -52.777
1335.4000, -52.914
1335.6000, -53.134
1335.8000, -53.443
1336.0000, -53.592
1336.2000, -53.742
1336.4000, -54.166
1336.6000, -54.203
1336.8000, -54.520
1337.0000, -54.606
1337.2000, -54.844
1337.4000, -54.968
1337.6000, -55.136
1337.8000, -55.127
1338.0000, -55.477
1338.2000, -55.584
1338.4000, -55.434
1338.6000, -55.931
1338.8000, -55.961
1339.0000, -56.285
1339.2000, -56.357
1339.4000, -56.511
1339.6000, -56.863
1339.8000, -57.000
1340.0000, -57.321
1340.2000, -57.554
1340.4000, -57.848
1340.6000, -58.355
1340.8000, -58.649
1341.0000, -58.993
1341.2000, -59.708
1341.4000, -60.035
1341.6000, -60.554
1341.8000, -61.274
1342.0000, -61.752
1342.2000, -62.389
1342.4000, -63.087
1342.6000, -63.542
1342.8000, -64.166
1343.0000, -65.220
1343.2000, -65.741
1343.4000, -66.214
1343.6000, -67.009
1343.8000, -67.795
1344.0000, -68.079
1344.2000, -68.622
1344.4000, -68.799
1344.6000, -68.626
1344.8000, -68.426
1345.0000, -67.834
1345.2000, -67.527
1345.4000, -66.660
1345.6000, -65.833
1345.8000, -65.121
1346.0000, -64.038
1346.2000, -63.346
1346.4000, -62.881
1346.6000, -61.918
1346.8000, -61.348
1347.0000, -60.912
1347.2000, -60.179
1347.4000, -59.798
1347.6000, -59.357
1347.8000, -58.980
1348.0000, -58.546
1348.2000, -58.310
1348.4000, -57.782
1348.6000, -57.408
1348.8000, -57.247
1349.0000, -56.974
1349.2000, -56.823
1349.4000, -56.618
1349.6000, -56.106
1349.8000, -55.838
1350.0000, -55.860
1350.2000, -55.457
1350.4000, -55.189
1350.6000, -54.917
1350.8000, -54.528
1351.0000, -54.326
1351.2000, -53.979
1351.4000, -53.779
1351.6000, -53.430
1351.8000, -53.330
1352.0000, -53.141
1352.2000, -52.743
1352.4000, -52.676
1352.6000, -52.492
1352.8000, -52.205
1353.0000, -52.185
1353.2000, -52.007
1353.4000, -51.945
1353.6000, -51.716
1353.8000, -51.456
1354.0000, -51.649
1354.2000, -51.484
1354.4000, -51.559
1354.6000, -51.636
1354.8000, -51.577
1355.0000, -51.517
1355.2000, -51.332
1355.4000, -51.439
1355.6000, -51.227
1355.8000, -51.237
1356.0000, -51.339
1356.2000, -51.224
1356.4000, -50.912
1356.6000, -50.936
1356.8000, -50.885
1357.0000, -50.788
1357.2000, -50.723
1357.4000, -50.642
1357.6000, -50.374
1357.8000, -49.860
1358.0000, -50.058
1358.2000, -49.948
1358.4000, -49.950
1358.6000, -49.863
1358.8000, -49.587
1359.0000, -49.505
1359.2000, -49.582
1359.4000, -49.537
1359.6000, -49.337
1359.8000, -49.473
1360.0000, -49.371
1360.2000, -49.413
1360.4000, -49.378
1360.6000, -49.496
1360.8000, -49.347
1361.0000, -49.570
1361.2000, -49.689
1361.4000, -49.714
1361.6000, -49.603
1361.8000, -49.691
1362.0000, -50.117
1362.2000, -50.102
1362.4000, -50.044
1362.6000, -50.002
1362.8000, -49.870
1363.0000, -49.397
1363.2000, -49.415
1363.4000, -49.397
1363.6000, -49.184
1363.8000, -49.161
1364.0000, -49.420
1364.2000, -49.310
1364.4000, -49.375
1364.6000, -49.277
1364.8000, -49.194
1365.0000, -49.332
1365.2000, -49.069
1365.4000, -48.647
1365.6000, -48.832
1365.8000, -48.678
1366.0000, -48.570
1366.2000, -48.475
1366.4000, -48.473
1366.6000, -48.776
1366.8000, -48.647
1367.0000, -48.665
1367.2000, -48.770
1367.4000, -49.108
1367.6000, -49.200
1367.8000, -49.207
1368.0000, -49.315
1368.2000, -49.383
1368.4000, -49.368
1368.6000, -49.253
1368.8000, -49.430
1369.0000, -49.471
1369.2000, -49.211
1369.4000, -49.231
1369.6000, -49.350
1369.8000, -49.376
1370.0000, -49.314
1370.2000, -49.447
1370.4000, -49.527
1370.6000, -49.397
1370.8000, -49.362
1371.0000, -49.367
1371.2000, -49.382
1371.4000, -49.350
1371.6000, -49.325
1371.8000, -49.190
1372.0000, -49.224
1372.2000, -49.254
1372.4000, -49.252
1372.6000, -49.385
1372.8000, -49.341
1373.0000, -49.444
1373.2000, -49.518
1373.4000, -49.582
1373.6000, -49.756
1373.8000, -49.870
1374.0000, -49.997
1374.2000, -50.071
1374.4000, -50.128
1374.6000, -50.367
1374.8000, -50.525
1375.0000, -50.772
1375.2000, -51.150
1375.4000, -51.065
1375.6000, -51.022
1375.8000, -51.191
1376.0000, -51.421
1376.2000, -51.535
1376.4000, -51.657
1376.6000, -51.779
1376.8000, -51.841
1377.0000, -51.985
1377.2000, -52.106
1377.4000, -52.143
1377.6000, -52.298
1377.8000, -52.285
1378.0000, -52.399
1378.2000, -52.617
1378.4000, -53.038
1378.6000, -53.243
1378.8000, -53.335
1379.0000, -53.567
1379.2000, -53.567
1379.4000, -53.830
1379.6000, -53.831
1379.8000, -54.203
1380.0000, -54.661
1380.2000, -55.053
1380.4000, -55.594
1380.6000, -55.975
1380.8000, -56.535
1381.0000, -56.912
1381.2000, -57.256
1381.4000, -57.191
1381.6000, -57.528
1381.8000, -57.966
1382.0000, -58.283
1382.2000, -58.891
1382.4000, -59.712
1382.6000, -60.323
1382.8000, -60.863
1383.0000, -61.592
1383.2000, -61.749
1383.4000, -62.105
1383.6000, -62.810
1383.8000, -63.197
1384.0000, -64.035
1384.2000, -64.717
1384.4000, -65.000
1384.6000, -65.606
1384.8000, -66.133
1385.0000, -66.274
1385.2000, -66.371
1385.4000, -66.342
1385.6000, -66.081
1385.8000, -65.307
1386.0000, -64.881
1386.2000, -64.262
1386.4000, -63.595
1386.6000, -62.881
1386.8000, -62.581
1387.0000, -61.731
1387.2000, -61.118
1387.4000, -60.971
1387.6000, -60.313
1387.8000, -59.818
1388.0000, -59.693
1388.2000, -59.017
1388.4000, -58.482
1388.6000, -58.164
1388.8000, -57.372
1389.0000, -57.032
1389.2000, -56.729
1389.4000, -56.189
1389.6000, -56.009
1389.8000, -55.530
1390.0000, -54.993
1390.2000, -54.663
1390.4000, -54.438
1390.6000, -53.935
1390.8000, -53.721
1391.0000, -53.365
1391.2000, -52.912
1391.4000, -52.770
1391.6000, -52.302
1391.8000, -52.058
1392.0000, -52.046
1392.2000, -51.802
1392.4000, -51.701
1392.6000, -51.417
1392.8000, -51.045
1393.0000, -50.730
1393.2000, -50.494
1393.4000, -50.224
1393.6000, -50.066
1393.8000, -50.006
1394.0000, -49.759
1394.2000, -49.713
1394.4000, -49.791
1394.6000, -49.687
1394.8000, -49.596
1395.0000, -49.640
1395.2000, -49.505
1395.4000, -49.306
1395.6000, -49.080
1395.8000, -48.887
1396.0000, -48.905
1396.2000, -48.830
1396.4000, -48.808
1396.6000, -48.658
1396.8000, -48.525
1397.0000, -48.108
1397.2000, -47.897
1397.4000, -47.794
1397.6000, -47.621
1397.8000, -47.560
1398.0000, -47.353
1398.2000, -47.183
1398.4000, -47.087
1398.6000, -46.925
1398.8000, -46.832
1399.0000, -46.792
1399.2000, -46.819
1399.4000, -46.627
1399.6000, -46.675
1399.8000, -46.477
1400.0000, -46.520
1400.2000, -46.407
1400.4000, -46.543
1400.6000, -46.409
1400.8000, -46.375
1401.0000, -46.389
1401.2000, -46.311
1401.4000, -46.142
1401.6000, -46.057
1401.8000, -46.018
1402.0000, -45.969
1402.2000, -45.889
1402.4000, -45.864
1402.6000, -45.834
1402.8000, -45.829
1403.0000, -45.782
1403.2000, -45.699
1403.4000, -45.644
1403.6000, -45.513
1403.8000, -45.499
1404.0000, -45.450
1404.2000, -45.342
1404.4000, -45.287
1404.6000, -45.576
1404.8000, -45.580
1405.0000, -45.477
1405.2000, -45.522
1405.4000, -45.177
1405.6000, -44.875
1405.8000, -44.940
1406.0000, -44.794
1406.2000, -44.767
1406.4000, -44.706
1406.6000, -44.787
1406.8000, -44.902
1407.0000, -44.880
1407.2000, -44.962
1407.4000, -44.948
1407.6000, -44.962
1407.8000, -44.718
1408.0000, -44.835
1408.2000, -44.894
1408.4000, -44.880
1408.6000, -44.951
1408.8000, -44.883
1409.0000, -45.046
1409.2000, -45.219
1409.4000, -45.243
1409.6000, -45.370
1409.8000, -45.101
1410.0000, -45.198
1410.2000, -44.981
1410.4000, -45.092
1410.6000, -45.097
1410.8000, -44.981
1411.0000, -44.997
1411.2000, -45.073
1411.4000, -44.977
1411.6000, -44.966
1411.8000, -44.887
1412.0000, -45.041
1412.2000, -44.931
1412.4000, -45.107
1412.6000, -44.840
1412.8000, -44.983
1413.0000, -44.936
1413.2000, -44.950
1413.4000, -44.972
1413.6000, -45.201
1413.8000, -45.352
1414.0000, -45.372
1414.2000, -45.440
1414.4000, -45.489
1414.6000, -45.554
1414.8000, -45.604
1415.0000, -45.523
1415.2000, -45.801
1415.4000, -45.810
1415.6000, -45.729
1415.8000, -45.918
1416.0000, -45.965
1416.2000, -46.140
1416.4000, -46.246
1416.6000, -46.265
1416.8000, -46.386
1417.0000, -46.425
1417.2000, -46.472
1417.4000, -46.654
1417.6000, -46.746
1417.8000, -46.663
1418.0000, -47.009
1418.2000, -47.010
1418.4000, -46.928
1418.6000, -47.251
1418.8000, -47.320
1419.0000, -47.417
1419.2000, -47.613
1419.4000, -47.712
1419.6000, -47.791
1419.8000, -47.973
1420.0000, -47.954
1420.2000, -48.133
1420.4000, -48.287
1420.6000, -48.483
1420.8000, -48.762
1421.0000, -49.022
1421.2000, -49.017
1421.4000, -49.282
1421.6000, -49.455
1421.8000, -49.585
1422.0000, -49.868
1422.2000, -50.006
1422.4000, -50.359
1422.6000, -50.626
1422.8000, -50.781
1423.0000, -51.032
1423.2000, -51.456
1423.4000, -51.561
1423.6000, -52.027
1423.8000, -52.224
1424.0000, -52.473
1424.2000, -52.754
1424.4000, -53.278
1424.6000, -53.243
1424.8000, -53.855
1425.0000, -54.037
1425.2000, -54.432
1425.4000, -54.996
1425.6000, -55.607
1425.8000, -55.806
1426.0000, -56.366
1426.2000, -56.676
1426.4000, -57.134
1426.6000, -57.821
1426.8000, -58.093
1427.0000, -58.846
1427.2000, -59.696
1427.4000, -60.205
1427.6000, -60.989
1427.8000, -61.690
1428.0000, -62.048
1428.2000, -62.733
1428.4000, -63.139
1428.6000, -63.383
1428.8000, -63.459
1429.0000, -63.266
1429.2000, -63.032
1429.4000, -62.402
1429.6000, -62.074
1429.8000, -61.196
1430.0000, -60.496
1430.2000, -60.106
1430.4000, -59.174
1430.6000, -58.614
1430.8000, -58.272
1431.0000, -57.365
1431.2000, -56.872
1431.4000, -56.413
1431.6000, -55.686
1431.8000, -55.386
1432.0000, -54.885
1432.2000, -54.178
1432.4000, -53.928
1432.6000, -53.450
1432.8000, -53.112
1433.0000, -52.779
1433.2000, -52.323
1433.4000, -52.009
1433.6000, -51.616
1433.8000, -51.222
1434.0000, -50.973
1434.2000, -50.679
1434.4000, -50.264
1434.6000, -49.868
1434.8000, -49.758
1435.0000, -49.409
1435.2000, -49.231
1435.4000, -49.042
1435.6000, -48.726
1435.8000, -48.359
1436.0000, -48.180
1436.2000, -47.939
1436.4000, -47.665
1436.6000, -47.482
1436.8000, -47.359
1437.0000, -47.126
1437.2000, -46.981
1437.4000, -46.862
1437.6000, -46.738
1437.8000, -46.449
1438.0000, -46.310
1438.2000, -45.986
1438.4000, -45.921
1438.6000, -45.736
1438.8000, -45.510
1439.0000, -45.525
1439.2000, -45.267
1439.4000, -45.157
1439.6000, -44.940
1439.8000, -44.840
1440.0000, -44.721
1440.2000, -44.560
1440.4000, -44.379
1440.6000, -44.295
1440.8000, -44.204
1441.0000, -43.916
1441.2000, -43.990
1441.4000, -43.663
1441.6000, -43.630
1441.8000, -43.526
1442.0000, -43.299
1442.2000, -43.200
1442.4000, -43.166
1442.6000, -43.067
1442.8000, -42.976
1443.0000, -42.824
1443.2000, -42.707
1443.4000, -42.617
1443.6000, -42.547
1443.8000, -42.367
1444.0000, -42.492
1444.2000, -42.287
1444.4000, -42.338
1444.6000, -42.292
1444.8000, -42.109
1445.0000, -42.099
1445.2000, -42.022
1445.4000, -41.966
1445.6000, -42.052
1445.8000, -41.953
1446.0000, -41.742
1446.2000, -41.747
1446.4000, -41.642
1446.6000, -41.534
1446.8000, -41.386
1447.0000, -41.333
1447.2000, -41.316
1447.4000, -41.223
1447.6000, -41.244
1447.8000, -41.068
1448.0000, -41.068
1448.2000, -40.896
1448.4000, -40.853
1448.6000, -40.785
1448.8000, -40.780
1449.0000, -40.725
1449.2000, -40.781
1449.4000, -40.667
1449.6000, -40.458
1449.8000, -40.435
1450.0000, -40.501
1450.2000, -40.426
1450.4000, -40.402
1450.6000, -40.375
1450.8000, -40.413
1451.0000, -40.282
1451.2000, -40.350
1451.4000, -40.364
1451.6000, -40.262
1451.8000, -40.314
1452.0000, -40.319
1452.2000, -40.120
1452.4000, -40.249
1452.6000, -40.211
1452.8000, -40.269
1453.0000, -40.165
1453.2000, -40.193
1453.4000, -40.088
1453.6000, -40.050
1453.8000, -40.129
1454.0000, -40.133
1454.2000, -40.023
1454.4000, -40.015
1454.6000, -40.203
1454.8000, -40.066
1455.0000, -40.016
1455.2000, -40.037
1455.4000, -40.044
1455.6000, -39.977
1455.8000, -39.935
1456.0000, -39.835
1456.2000, -40.024
1456.4000, -39.895
1456.6000, -39.846
1456.8000, -40.001
1457.0000, -39.917
1457.2000, -40.042
1457.4000, -39.998
1457.6000, -40.026
1457.8000, -40.071
1458.0000, -40.134
1458.2000, -40.095
1458.4000, -40.216
1458.6000, -40.277
1458.8000, -40.279
1459.0000, -40.267
1459.2000, -40.406
1459.4000, -40.415
1459.6000, -40.440
1459.8000, -40.453
1460.0000, -40.630
1460.2000, -40.680
1460.4000, -40.720
1460.6000, -40.719
1460.8000, -40.998
1461.0000, -40.952
1461.2000, -40.967
1461.4000, -40.984
1461.6000, -41.007
1461.8000, -41.153
1462.0000, -41.236
1462.2000, -41.331
1462.4000, -41.295
1462.6000, -41.297
1462.8000, -41.470
1463.0000, -41.610
1463.2000, -41.571
1463.4000, -41.702
1463.6000, -41.863
1463.8000, -41.885
1464.0000, -42.002
1464.2000, -42.115
1464.4000, -42.271
1464.6000, -42.441
1464.8000, -42.378
1465.0000, -42.690
1465.2000, -42.809
1465.4000, -42.987
1465.6000, -43.220
1465.8000, -43.261
1466.0000, -43.489
1466.2000, -43.547
1466.4000, -43.811
1466.6000, -44.054
1466.8000, -44.151
1467.0000, -44.381
1467.2000, -44.648
1467.4000, -44.781
1467.6000, -45.019
1467.8000, -45.211
1468.0000, -45.465
1468.2000, -45.701
1468.4000, -45.973
1468.6000, -46.120
1468.8000, -46.449
1469.0000, -46.515
1469.2000, -46.936
1469.4000, -47.131
1469.6000, -47.475
1469.8000, -47.842
1470.0000, -47.979
1470.2000, -48.297
1470.4000, -48.519
1470.6000, -48.902
1470.8000, -49.416
1471.0000, -49.952
1471.2000, -50.136
1471.4000, -50.647
1471.6000, -51.050
1471.8000, -51.377
1472.0000, -52.057
1472.2000, -52.363
1472.4000, -52.933
1472.6000, -53.602
1472.8000, -53.950
1473.0000, -54.767
1473.2000, -55.199
1473.4000, -55.703
1473.6000, -56.647
1473.8000, -57.030
1474.0000, -57.779
1474.2000, -58.425
1474.4000, -59.027
1474.6000, -59.650
1474.8000, -59.708
1475.0000, -59.916
1475.2000, -59.779
1475.4000, -59.835
1475.6000, -59.301
1475.8000, -58.683
1476.0000, -58.139
1476.2000, -57.234
1476.4000, -56.773
1476.6000, -56.157
1476.8000, -55.362
1477.0000, -54.991
1477.2000, -54.213
1477.4000, -53.721
1477.6000, -53.283
1477.8000, -52.596
1478.0000, -52.261
1478.2000, -51.812
1478.4000, -51.210
1478.6000, -51.016
1478.8000, -50.497
1479.0000, -50.128
1479.2000, -49.887
1479.4000, -49.463
1479.6000, -49.147
1479.8000, -48.925
1480.0000, -48.459
1480.2000, -48.624
1480.4000, -47.884
1480.6000, -47.684
1480.8000, -47.313
1481.0000, -47.006
1481.2000, -46.910
1481.4000, -46.752
1481.6000, -46.489
1481.8000, -46.237
1482.0000, -46.207
1482.2000, -45.895
1482.4000, -45.631
1482.6000, -45.424
1482.8000, -45.285
1483.0000, -45.125
1483.2000, -45.021
1483.4000, -44.853
1483.6000, -44.788
1483.8000, -44.571
1484.0000, -44.296
1484.2000, -44.170
1484.4000, -44.128
1484.6000, -43.843
1484.8000, -43.805
1485.0000, -43.581
1485.2000, -43.331
1485.4000, -43.463
1485.6000, -43.341
1485.8000, -43.167
1486.0000, -42.925
1486.2000, -42.920
1486.4000, -42.848
1486.6000, -42.574
1486.8000, -42.594
1487.0000, -42.347
1487.2000, -42.257
1487.4000, -42.171
1487.6000, -42.094
1487.8000, -42.028
1488.0000, -41.867
1488.2000, -41.882
1488.4000, -41.724
1488.6000, -41.689
1488.8000, -41.596
1489.0000, -41.445
1489.2000, -41.533
1489.4000, -41.450
1489.6000, -41.399
1489.8000, -41.400
1490.0000, -41.313
1490.2000, -41.193
1490.4000, -40.997
1490.6000, -41.036
1490.8000, -41.091
1491.0000, -40.977
1491.2000, -40.916
1491.4000, -40.920
1491.6000, -40.850
1491.8000, -40.781
1492.0000, -40.733
1492.2000, -40.709
1492.4000, -40.598
1492.6000, -40.593
1492.8000, -40.488
1493.0000, -40.504
1493.2000, -40.528
1493.4000, -40.470
1493.6000, -40.544
1493.8000, -40.363
1494.0000, -40.198
1494.2000, -40.307
1494.4000, -40.196
1494.6000, -40.118
1494.8000, -40.183
1495.0000, -40.178
1495.2000, -40.207
1495.4000, -40.080
1495.6000, -39.983
1495.8000, -40.036
1496.0000, -40.124
1496.2000, -40.099
1496.4000, -40.040
1496.6000, -39.986
1496.8000, -39.938
1497.0000, -40.136
1497.2000, -40.110
1497.4000, -40.004
1497.6000, -40.100
1497.8000, -39.994
1498.0000, -40.037
1498.2000, -39.917
1498.4000, -40.064
1498.6000, -40.099
1498.8000, -40.009
1499.0000, -40.137
1499.2000, -40.004
1499.4000, -40.016
1499.6000, -39.944
1499.8000, -39.996
1500.0000, -39.911
1500.2000, -40.150
1500.4000, -39.970
1500.6000, -40.179
1500.8000, -40.018
1501.0000, -40.128
1501.2000, -40.078
1501.4000, -40.079
1501.6000, -40.143
1501.8000, -40.023
1502.0000, -40.191
1502.2000, -40.251
1502.4000, -40.295
1502.6000, -40.330
1502.8000, -40.420
1503.0000, -40.302
1503.2000, -40.366
1503.4000, -40.408
1503.6000, -40.340
1503.8000, -40.427
1504.0000, -40.365
1504.2000, -40.471
1504.4000, -40.560
1504.6000, -40.630
1504.8000, -40.574
1505.0000, -40.752
1505.2000, -40.660
1505.4000, -40.834
1505.6000, -40.800
1505.8000, -40.868
1506.0000, -41.033
1506.2000, -40.968
1506.4000, -41.063
1506.6000, -41.201
1506.8000, -41.164
1507.0000, -41.332
1507.2000, -41.279
1507.4000, -41.254
1507.6000, -41.465
1507.8000, -41.501
1508.0000, -41.543
1508.2000, -41.649
1508.4000, -41.722
1508.6000, -41.809
1508.8000, -41.875
1509.0000, -41.934
1509.2000, -42.075
1509.4000, -42.320
1509.6000, -42.288
1509.8000, -42.293
1510.0000, -42.362
1510.2000, -42.428
1510.4000, -42.514
1510.6000, -42.741
1510.8000, -42.789
1511.0000, -42.880
1511.2000, -43.064
1511.4000, -43.040
1511.6000, -43.143
1511.8000, -43.085
1512.0000, -43.234
1512.2000, -43.394
1512.4000, -43.627
1512.6000, -43.753
1512.8000, -43.879
1513.0000, -43.986
1513.2000, -44.002
1513.4000, -44.203
1513.6000, -44.343
1513.8000, -44.420
1514.0000, -44.630
1514.2000, -44.825
1514.4000, -45.024
1514.6000, -45.142
1514.8000, -45.311
1515.0000, -45.491
1515.2000, -45.527
1515.4000, -45.814
1515.6000, -46.070
1515.8000, -46.186
1516.0000, -46.480
1516.2000, -46.650
1516.4000, -46.638
1516.6000, -46.940
1516.8000, -47.042
1517.0000, -47.322
1517.2000, -47.511
1517.4000, -47.718
1517.6000, -48.062
1517.8000, -48.169
1518.0000, -48.518
1518.2000, -48.758
1518.4000, -49.099
1518.6000, -49.430
1518.8000, -49.383
1519.0000, -49.844
1519.2000, -50.408
1519.4000, -50.331
1519.6000, -50.892
1519.8000, -51.035
1520.0000, -51.549
1520.2000, -51.900
1520.4000, -52.124
1520.6000, -52.740
1520.8000, -52.922
1521.0000, -53.352
1521.2000, -53.825
1521.4000, -54.354
1521.6000, -55.013
1521.8000, -55.239
1522.0000, -55.899
1522.2000, -56.327
1522.4000, -57.045
1522.6000, -57.714
1522.8000, -58.069
1523.0000, -58.644
1523.2000, -59.338
1523.4000, -59.847
1523.6000, -60.474
1523.8000, -60.933
1524.0000, -61.476
1524.2000, -61.741
1524.4000, -61.848
1524.6000, -61.918
1524.8000, -61.692
1525.0000, -61.292
1525.2000, -60.883
1525.4000, -60.390
1525.6000, -59.577
1525.8000, -59.262
1526.0000, -58.382
1526.2000, -57.978
1526.4000, -57.550
1526.6000, -57.001
1526.8000, -56.498
1527.0000, -55.866
1527.2000, -55.507
1527.4000, -54.975
1527.6000, -54.393
1527.8000, -54.158
1528.0000, -53.421
1528.2000, -53.262
1528.4000, -52.959
1528.6000, -52.439
1528.8000, -52.236
1529.0000, -51.766
1529.2000, -51.466
1529.4000, -51.259
1529.6000, -50.755
1529.8000, -50.629
1530.0000, -50.113
1530.2000, -49.934
1530.4000, -49.659
1530.6000, -49.239
1530.8000, -49.048
1531.0000, -48.696
1531.2000, -48.637
1531.4000, -48.413
1531.6000, -48.048
1531.8000, -47.859
1532.0000, -47.564
1532.2000, -47.335
1532.4000, -47.232
1532.6000, -47.031
1532.8000, -46.919
1533.0000, -46.778
1533.2000, -46.738
1533.4000, -46.433
1533.6000, -46.174
1533.8000, -46.125
1534.0000, -45.859
1534.2000, -45.819
1534.4000, -45.573
1534.6000, -45.459
1534.8000, -45.276
1535.0000, -45.093
1535.2000, -45.021
1535.4000, -44.926
1535.6000, -44.787
1535.8000, -44.716
1536.0000, -44.596
1536.2000, -44.362
1536.4000, -44.339
1536.6000, -44.226
1536.8000, -44.158
1537.0000, -44.101
1537.2000, -43.984
1537.4000, -43.877
1537.6000, -43.774
1537.8000, -43.741
1538.0000, -43.636
1538.2000, -43.588
1538.4000, -43.556
1538.6000, -43.472
1538.8000, -43.402
1539.0000, -43.225
1539.2000, -43.129
1539.4000, -43.058
1539.6000, -42.922
1539.8000, -42.982
1540.0000, -42.954
1540.2000, -42.822
1540.4000, -42.698
1540.6000, -42.692
1540.8000, -42.669
1541.0000, -42.558
1541.2000, -42.501
1541.4000, -42.449
1541.6000, -42.377
1541.8000, -42.332
1542.0000, -42.349
1542.2000, -42.228
1542.4000, -42.116
1542.6000, -42.218
1542.8000, -42.195
1543.0000, -41.947
1543.2000, -42.024
1543.4000, -41.898
1543.6000, -41.797
1543.8000, -41.871
1544.0000, -41.805
1544.2000, -41.781
1544.4000, -41.902
1544.6000, -41.819
1544.8000, -41.659
1545.0000, -41.737
1545.2000, -41.742
1545.4000, -41.627
1545.6000, -41.669
1545.8000, -41.614
1546.0000, -41.536
1546.2000, -41.604
1546.4000, -41.616
1546.6000, -41.592
1546.8000, -41.673
1547.0000, -41.382
1547.2000, -41.563
1547.4000, -41.443
1547.6000, -41.467
1547.8000, -41.637
1548.0000, -41.495
1548.2000, -41.524
1548.4000, -41.427
1548.6000, -41.475
1548.8000, -41.499
1549.0000, -41.407
1549.2000, -41.538
1549.4000, -41.493
1549.6000, -41.405
1549.8000, -41.444
1550.0000, -41.393
1550.2000, -41.475
1550.4000, -41.384
1550.6000, -41.498
1550.8000, -41.459
1551.0000, -41.473
1551.2000, -41.692
1551.4000, -41.537
1551.6000, -41.596
1551.8000, -41.682
1552.0000, -41.606
1552.2000, -41.616
1552.4000, -41.901
1552.6000, -41.648
1552.8000, -41.644
1553.0000, -41.688
1553.2000, -41.713
1553.4000, -41.876
1553.6000, -41.927
1553.8000, -41.972
1554.0000, -42.004
1554.2000, -42.007
1554.4000, -41.955
1554.6000, -42.055
1554.8000, -42.218
1555.0000, -42.213
1555.2000, -42.270
1555.4000, -42.201
1555.6000, -42.212
1555.8000, -42.273
1556.0000, -42.311
1556.2000, -42.483
1556.4000, -42.489
1556.6000, -42.520
1556.8000, -42.486
1557.0000, -42.466
1557.2000, -42.739
1557.4000, -42.690
1557.6000, -42.774
1557.8000, -42.952
1558.0000, -42.836
1558.2000, -42.972
1558.4000, -43.027
1558.6000, -43.036
1558.8000, -43.111
1559.0000, -43.393
1559.2000, -43.379
1559.4000, -43.328
1559.6000, -43.472
1559.8000, -43.477
1560.0000, -43.680
1560.2000, -43.562
1560.4000, -43.873
1560.6000, -43.837
1560.8000, -44.007
1561.0000, -44.232
1561.2000, -44.145
1561.4000, -44.216
1561.6000, -44.368
1561.8000, -44.399
1562.0000, -44.597
1562.2000, -44.566
1562.4000, -44.867
1562.6000, -44.894
1562.8000, -44.946
1563.0000, -44.968
1563.2000, -45.210
1563.4000, -45.257
1563.6000, -45.412
1563.8000, -45.478
1564.0000, -45.863
1564.2000, -45.801
1564.4000, -45.836
1564.6000, -45.959
1564.8000, -46.162
1565.0000, -46.338
1565.2000, -46.381
1565.4000, -46.531
1565.6000, -46.832
1565.8000, -46.893
1566.0000, -47.001
1566.2000, -47.244
1566.4000, -47.464
1566.6000, -47.667
1566.8000, -47.484
1567.0000, -47.787
1567.2000, -48.019
1567.4000, -48.110
1567.6000, -48.277
1567.8000, -48.538
1568.0000, -48.707
1568.2000, -49.019
1568.4000, -48.993
1568.6000, -49.259
1568.8000, -49.709
1569.0000, -49.803
1569.2000, -49.952
1569.4000, -50.293
1569.6000, -50.574
1569.8000, -50.991
1570.0000, -51.254
1570.2000, -51.685
1570.4000, -51.968
1570.6000, -52.189
1570.8000, -52.513
1571.0000, -52.723
1571.2000, -53.202
1571.4000, -53.444
1571.6000, -53.884
1571.8000, -54.289
1572.0000, -54.714
1572.2000, -55.104
1572.4000, -55.627
1572.6000, -56.099
1572.8000, -56.596
1573.0000, -57.293
1573.2000, -57.561
1573.4000, -58.209
1573.6000, -58.883
1573.8000, -59.238
1574.0000, -59.963
1574.2000, -60.634
1574.4000, -61.307
1574.6000, -61.639
1574.8000, -62.024
1575.0000, -62.433
1575.2000, -62.539
1575.4000, -63.158
1575.6000, -63.314
1575.8000, -63.435
1576.0000, -63.359
1576.2000, -62.847
1576.4000, -62.896
1576.6000, -62.481
1576.8000, -61.990
1577.0000, -61.513
1577.2000, -60.684
1577.4000, -60.406
1577.6000, -59.652
1577.8000, -59.342
1578.0000, -58.892
1578.2000, -58.351
1578.4000, -57.996
1578.6000, -57.194
1578.8000, -57.048
1579.0000, -55.912
1579.2000, -55.663
1579.4000, -55.270
1579.6000, -55.151
1579.8000, -54.866
1580.0000, -54.656
1580.2000, -54.268
1580.4000, -53.868
1580.6000, -53.720
1580.8000, -53.320
1581.0000, -53.005
1581.2000, -52.743
1581.4000, -52.485
1581.6000, -52.333
1581.8000, -52.094
1582.0000, -52.030
1582.2000, -51.542
1582.4000, -51.411
1582.6000, -51.094
1582.8000, -50.953
1583.0000, -50.812
1583.2000, -50.692
1583.4000, -50.453
1583.6000, -50.189
1583.8000, -50.134
1584.0000, -49.764
1584.2000, -49.601
1584.4000, -49.361
1584.6000, -49.191
1584.8000, -48.892
1585.0000, -48.961
1585.2000, -48.882
1585.4000, -48.724
1585.6000, -48.479
1585.8000, -48.343
1586.0000, -48.128
1586.2000, -47.917
1586.4000, -47.817
1586.6000, -47.961
1586.8000, -47.659
1587.0000, -47.509
1587.2000, -47.246
1587.4000, -47.385
1587.6000, -47.067
1587.8000, -47.218
1588.0000, -46.794
1588.2000, -46.793
1588.4000, -46.672
1588.6000, -46.758
1588.8000, -46.645
1589.0000, -46.516
1589.2000, -46.617
1589.4000, -46.399
1589.6000, -46.432
1589.8000, -46.265
1590.0000, -46.235
1590.2000, -46.137
1590.4000, -45.878
1590.6000, -46.028
1590.8000, -45.819
1591.0000, -45.602
1591.2000, -45.673
1591.4000, -45.569
1591.6000, -45.615
1591.8000, -45.495
1592.0000, -45.580
1592.2000, -45.313
1592.4000, -45.230
1592.6000, -45.239
1592.8000, -45.153
1593.0000, -44.849
1593.2000, -45.028
1593.4000, -44.791
1593.6000, -44.668
1593.8000, -44.814
1594.0000, -44.676
1594.2000, -44.733
1594.4000, -44.649
1594.6000, -44.681
1594.8000, -44.653
1595.0000, -44.645
1595.2000, -44.641
1595.4000, -44.634
1595.6000, -44.580
1595.8000, -44.748
1596.0000, -44.647
1596.2000, -44.545
1596.4000, -44.697
1596.6000, -44.477
1596.8000, -44.447
1597.0000, -44.513
1597.2000, -44.408
1597.4000, -44.199
1597.6000, -44.454
1597.8000, -44.345
1598.0000, -44.356
1598.2000, -44.360
1598.4000, -44.367
1598.6000, -44.216
1598.8000, -44.215
1599.0000, -44.190
1599.2000, -44.337
1599.4000, -44.154
1599.6000, -44.081
1599.8000, -44.293
1600.0000, -44.090
1600.2000, -44.030
1600.4000, -44.070
1600.6000, -44.069
1600.8000, -44.089
1601.0000, -44.224
1601.2000, -44.217
1601.4000, -44.197
1601.6000, -44.060
1601.8000, -44.186
1602.0000, -44.236
1602.2000, -44.136
1602.4000, -44.308
1602.6000, -44.154
1602.8000, -44.327
1603.0000, -44.254
1603.2000, -44.380
1603.4000, -44.386
1603.6000, -44.294
1603.8000, -44.403
1604.0000, -44.454
1604.2000, -44.457
1604.4000, -44.573
1604.6000, -44.605
1604.8000, -44.638
1605.0000, -44.475
1605.2000, -44.674
1605.4000, -44.460
1605.6000, -44.613
1605.8000, -44.771
1606.0000, -44.737
1606.2000, -44.651
1606.4000, -44.682
1606.6000, -44.889
1606.8000, -44.930
1607.0000, -45.145
1607.2000, -45.188
1607.4000, -45.162
1607.6000, -45.018
1607.8000, -45.288
1608.0000, -45.249
1608.2000, -45.345
1608.4000, -45.510
1608.6000, -45.539
1608.8000, -45.528
1609.0000, -45.398
1609.2000, -45.620
1609.4000, -45.660
1609.6000, -45.878
1609.8000, -45.926
1610.0000, -45.836
1610.2000, -46.122
1610.4000, -46.165
1610.6000, -46.226
1610.8000, -46.360
1611.0000, -46.230
1611.2000, -46.335
1611.4000, -46.344
1611.6000, -46.259
1611.8000, -46.429
1612.0000, -46.494
1612.2000, -46.357
1612.4000, -46.288
1612.6000, -46.618
1612.8000, -46.671
1613.0000, -46.620
1613.2000, -46.617
1613.4000, -46.579
1613.6000, -46.849
1613.8000, -46.970
1614.0000, -47.065
1614.2000, -47.166
1614.4000, -47.082
1614.6000, -47.011
1614.8000, -47.003
1615.0000, -47.327
1615.2000, -47.441
1615.4000, -47.674
1615.6000, -47.698
1615.8000, -47.730
1616.0000, -47.740
1616.2000, -47.717
1616.4000, -47.836
1616.6000, -47.799
1616.8000, -48.006
1617.0000, -48.210
1617.2000, -48.192
1617.4000, -48.221
1617.6000, -48.457
1617.8000, -48.536
1618.0000, -48.637
1618.2000, -48.961
1618.4000, -49.076
1618.6000, -49.075
1618.8000, -48.970
1619.0000, -49.166
1619.2000, -49.385
1619.4000, -49.525
1619.6000, -49.457
1619.8000, -49.580
1620.0000, -49.779
1620.2000, -50.048
1620.4000, -50.290
1620.6000, -50.287
1620.8000, -50.277
1621.0000, -50.399
1621.2000, -50.653
1621.4000, -50.820
1621.6000, -51.045
1621.8000, -51.218
1622.0000, -51.572
1622.2000, -51.537
1622.4000, -51.843
1622.6000, -51.869
1622.8000, -51.878
1623.0000, -52.069
1623.2000, -52.455
1623.4000, -52.773
1623.6000, -53.027
1623.8000, -53.057
1624.0000, -53.176
1624.2000, -53.407
1624.4000, -53.566
1624.6000, -53.884
1624.8000, -54.265
1625.0000, -54.576
1625.2000, -54.774
1625.4000, -55.004
1625.6000, -55.132
1625.8000, -55.447
1626.0000, -55.567
1626.2000, -56.178
1626.4000, -56.318
1626.6000, -56.704
1626.8000, -57.182
1627.0000, -57.557
1627.2000, -57.681
1627.4000, -57.949
1627.6000, -58.325
1627.8000, -58.828
1628.0000, -59.217
1628.2000, -59.626
1628.4000, -59.771
1628.6000, -60.079
1628.8000, -60.431
1629.0000, -60.970
1629.2000, -61.366
1629.4000, -61.741
1629.6000, -62.161
1629.8000, -62.601
1630.0000, -63.298
1630.2000, -63.881
1630.4000, -64.625
1630.6000, -65.107
1630.8000, -65.622
1631.0000, -66.317
1631.2000, -66.681
1631.4000, -66.869
1631.6000, -67.562
1631.8000, -67.589
1632.0000, -67.968
1632.2000, -68.016
1632.4000, -68.056
1632.6000, -67.659
1632.8000, -67.425
1633.0000, -67.166
1633.2000, -66.078
1633.4000, -65.793
1633.6000, -65.278
1633.8000, -65.233
1634.0000, -64.584
1634.2000, -64.160
1634.4000, -63.577
1634.6000, -63.546
1634.8000, -62.918
1635.0000, -62.740
1635.2000, -62.221
1635.4000, -62.066
1635.6000, -61.335
1635.8000, -61.122
1636.0000, -60.803
1636.2000, -60.542
1636.4000, -60.374
1636.6000, -59.986
1636.8000, -59.566
1637.0000, -59.276
1637.2000, -58.805
1637.4000, -58.583
1637.6000, -58.295
1637.8000, -58.239
1638.0000, -57.845
1638.2000, -57.644
1638.4000, -57.178
1638.6000, -56.838
1638.8000, -56.623
1639.0000, -56.500
1639.2000, -56.277
1639.4000, -56.025
1639.6000, -55.701
1639.8000, -55.664
1640.0000, -55.622
1640.2000, -55.374
1640.4000, -55.041
1640.6000, -54.839
1640.8000, -54.836
1641.0000, -54.763
1641.2000, -54.390
1641.4000, -54.528
1641.6000, -54.459
1641.8000, -54.139
1642.0000, -54.050
1642.2000, -54.191
1642.4000, -54.018
1642.6000, -54.009
1642.8000, -53.723
1643.0000, -53.845
1643.2000, -53.645
1643.4000, -53.292
1643.6000, -53.466
1643.8000, -53.161
1644.0000, -53.050
1644.2000, -53.069
1644.4000, -52.935
1644.6000, -52.746
1644.8000, -52.658
1645.0000, -52.361
1645.2000, -52.609
1645.4000, -52.386
1645.6000, -52.390
1645.8000, -52.049
1646.0000, -51.912
1646.2000, -52.090
1646.4000, -51.852
1646.6000, -51.896
1646.8000, -51.974
1647.0000, -51.853
1647.2000, -51.757
1647.4000, -51.674
1647.6000, -51.489
1647.8000, -51.485
1648.0000, -51.461
1648.2000, -51.324
1648.4000, -51.175
1648.6000, -51.384
1648.8000, -51.195
1649.0000, -51.012
1649.2000, -51.060
1649.4000, -51.134
1649.6000, -50.976
1649.8000, -51.069
1650.0000, -50.875
1650.2000, -50.925
1650.4000, -50.830
1650.6000, -50.934
1650.8000, -50.531
1651.0000, -50.713
1651.2000, -50.845
1651.4000, -50.581
1651.6000, -50.363
1651.8000, -50.435
1652.0000, -50.486
1652.2000, -50.643
1652.4000, -50.555
1652.6000, -50.563
1652.8000, -50.477
1653.0000, -50.279
1653.2000, -50.375
1653.4000, -50.274
1653.6000, -50.294
1653.8000, -50.370
1654.0000, -50.169
1654.2000, -50.308
1654.4000, -50.152
1654.6000, -50.310
1654.8000, -50.248
1655.0000, -50.168
1655.2000, -50.218
1655.4000, -50.101
1655.6000, -50.041
1655.8000, -50.135
1656.0000, -50.135
1656.2000, -50.118
1656.4000, -49.913
1656.6000, -50.086
1656.8000, -50.126
1657.0000, -50.061
1657.2000, -50.077
1657.4000, -50.062
1657.6000, -50.142
1657.8000, -50.101
1658.0000, -49.979
1658.2000, -50.162
1658.4000, -50.281
1658.6000, -49.804
1658.8000, -50.091
1659.0000, -50.088
1659.2000, -50.018
1659.4000, -50.180
1659.6000, -50.190
1659.8000, -49.950
1660.0000, -50.175
1660.2000, -50.067
1660.4000, -50.206
1660.6000, -50.334
1660.8000, -50.228
1661.0000, -50.322
1661.2000, -50.154
1661.4000, -50.222
1661.6000, -50.277
1661.8000, -50.378
1662.0000, -50.273
1662.2000, -50.374
1662.4000, -50.334
1662.6000, -50.322
1662.8000, -50.436
1663.0000, -50.376
1663.2000, -50.528
1663.4000, -50.557
1663.6000, -50.527
1663.8000, -50.497
1664.0000, -50.581
1664.2000, -50.436
1664.4000, -50.567
1664.6000, -50.535
1664.8000, -50.610
1665.0000, -50.726
1665.2000, -50.772
1665.4000, -50.666
1665.6000, -50.570
1665.8000, -50.691
1666.0000, -50.972
1666.2000, -50.794
1666.4000, -50.757
1666.6000, -50.686
1666.8000, -50.928
1667.0000, -50.988
1667.2000, -50.962
1667.4000, -50.857
1667.6000, -51.210
1667.8000, -51.175
1668.0000, -51.209
1668.2000, -51.198
1668.4000, -51.226
1668.6000, -51.186
1668.8000, -51.376
1669.0000, -51.315
1669.2000, -51.386
1669.4000, -51.338
1669.6000, -51.554
1669.8000, -51.555
1670.0000, -51.557
1670.2000, -51.450
1670.4000, -51.547
1670.6000, -51.575
1670.8000, -51.704
1671.0000, -51.890
1671.2000, -52.050
1671.4000, -51.925
1671.6000, -52.127
1671.8000, -51.812
1672.0000, -52.178
1672.2000, -52.461
1672.4000, -52.403
1672.6000, -52.232
1672.8000, -52.352
1673.0000, -52.484
1673.2000, -52.545
1673.4000, -52.524
1673.6000, -52.460
1673.8000, -52.588
1674.0000, -52.574
1674.2000, -52.497
1674.4000, -52.499
1674.6000, -52.627
1674.8000, -53.074
1675.0000, -53.153
1675.2000, -53.455
1675.4000, -53.322
1675.6000, -53.318
1675.8000, -53.439
1676.0000, -53.697
1676.2000, -53.593
1676.4000, -53.665
1676.6000, -53.590
1676.8000, -54.122
1677.0000, -54.054
1677.2000, -54.038
1677.4000, -54.027
1677.6000, -54.415
1677.8000, -54.345
1678.0000, -54.669
1678.2000, -54.888
1678.4000, -54.804
1678.6000, -54.803
1678.8000, -55.161
1679.0000, -55.213
1679.2000, -55.115
1679.4000, -55.390
1679.6000, -55.565
1679.8000, -55.644
1680.0000, -55.722
1680.2000, -55.888
1680.4000, -56.021
1680.6000, -55.984
1680.8000, -56.530
1681.0000, -56.795
1681.2000, -56.338
1681.4000, -56.925
1681.6000, -56.954
1681.8000, -56.959
1682.0000, -57.151
1682.2000, -57.288
1682.4000, -57.761
1682.6000, -57.615
1682.8000, -57.498
1683.0000, -57.762
1683.2000, -58.322
1683.4000, -57.795
1683.6000, -59.017
1683.8000, -58.504
1684.0000, -58.522
1684.2000, -58.424
1684.4000, -58.878
1684.6000, -59.288
1684.8000, -59.332
1685.0000, -59.445
1685.2000, -59.636
1685.4000, -60.169
1685.6000, -59.901
1685.8000, -59.838
1686.0000, -61.502
1686.2000, -60.110
1686.4000, -60.634
1686.6000, -61.365
1686.8000, -60.995
1687.0000, -61.610
1687.2000, -61.474
1687.4000, -62.018
1687.6000, -62.717
1687.8000, -63.323
1688.0000, -63.280
1688.2000, -61.746
1688.4000, -68.035
1688.6000, -63.687
1688.8000, -60.505
1689.0000, -64.682
1689.2000, -63.195
1689.4000, -63.760
1689.6000, -63.526
1689.8000, -64.401
1690.0000, -65.866
1690.2000, -67.526
1690.4000, -65.552
1690.6000,-210.000
1690.8000, -64.778
1691.0000, -68.946
1691.2000, -62.594
1691.4000,-210.000
1691.6000, -62.517
1691.8000, -69.067
1692.0000, -65.436
1692.2000, -64.976
1692.4000,-210.000
1692.6000, -63.937
1692.8000, -63.602
1693.0000, -70.838
1693.2000, -64.502
1693.4000,-210.000
1693.6000, -62.852
1693.8000, -67.710
1694.0000, -65.341
1694.2000, -69.591
1694.4000, -67.677
1694.6000, -62.710
1694.8000, -65.939
1695.0000, -65.787
1695.2000, -63.616
1695.4000, -63.688
1695.6000, -63.582
1695.8000, -62.209
1696.0000,-210.000
1696.2000, -61.730
1696.4000, -68.836
1696.6000, -63.107
1696.8000, -61.970
1697.0000, -61.860
1697.2000, -61.574
1697.4000, -62.896
1697.6000, -67.872
1697.8000, -65.544
1698.0000, -65.727
1698.2000, -62.512
1698.4000, -61.296
1698.6000, -64.134
1698.8000, -66.858
1699.0000, -63.807
1699.2000, -60.198
1699.4000, -62.149
1699.6000, -62.537
1699.8000, -59.165
1700.0000, -63.588
