70BCSV 	
// AQ6370B OPTICAL SPECTRUM ANALYZER //                 
25
"CTRWL",1500.000000
"SPAN", 400.000000
"START WL",1300.000000
"STOP WL",1700.000000
"WLFREQ", 0
"REFL",-44.2
"LSCL",10.0
"RESLN",1.000
"AVG",   1
"SMPLAUTO",      1
"SMPL",       2001
"SMPLINTVL",0.2000
"HIGH1"
"MEAS"
"LSUNT",0
"NMSKH","OFF"
"RESCOR",0
"RESPARM", 9859
"FREQPARM", 9859






"[TRACE DATA]"
1300.0000, -56.297
1300.2000, -56.665
1300.4000, -56.888
1300.6000, -56.581
1300.8000, -56.405
1301.0000, -55.803
1301.2000, -55.211
1301.4000, -54.178
1301.6000, -53.252
1301.8000, -52.397
1302.0000, -51.608
1302.2000, -50.500
1302.4000, -49.364
1302.6000, -48.740
1302.8000, -48.156
1303.0000, -47.346
1303.2000, -46.675
1303.4000, -45.962
1303.6000, -45.803
1303.8000, -45.566
1304.0000, -44.667
1304.2000, -44.285
1304.4000, -43.924
1304.6000, -43.812
1304.8000, -43.642
1305.0000, -43.118
1305.2000, -42.771
1305.4000, -42.665
1305.6000, -42.760
1305.8000, -42.611
1306.0000, -42.307
1306.2000, -42.132
1306.4000, -42.205
1306.6000, -41.745
1306.8000, -41.591
1307.0000, -41.316
1307.2000, -41.296
1307.4000, -41.348
1307.6000, -41.185
1307.8000, -41.046
1308.0000, -40.946
1308.2000, -41.022
1308.4000, -40.983
1308.6000, -41.243
1308.8000, -40.992
1309.0000, -41.171
1309.2000, -41.362
1309.4000, -41.555
1309.6000, -41.526
1309.8000, -41.815
1310.0000, -41.993
1310.2000, -42.553
1310.4000, -42.702
1310.6000, -43.020
1310.8000, -43.303
1311.0000, -43.885
1311.2000, -44.341
1311.4000, -44.716
1311.6000, -45.190
1311.8000, -45.596
1312.0000, -46.281
1312.2000, -46.754
1312.4000, -47.053
1312.6000, -47.555
1312.8000, -48.108
1313.0000, -48.861
1313.2000, -49.385
1313.4000, -49.704
1313.6000, -50.496
1313.8000, -50.949
1314.0000, -51.728
1314.2000, -52.515
1314.4000, -52.993
1314.6000, -53.711
1314.8000, -54.737
1315.0000, -55.487
1315.2000, -56.220
1315.4000, -56.799
1315.6000, -57.440
1315.8000, -57.829
1316.0000, -58.102
1316.2000, -57.957
1316.4000, -57.755
1316.6000, -57.231
1316.8000, -56.936
1317.0000, -56.598
1317.2000, -56.000
1317.4000, -55.616
1317.6000, -55.256
1317.8000, -54.699
1318.0000, -54.624
1318.2000, -54.032
1318.4000, -53.676
1318.6000, -53.372
1318.8000, -53.017
1319.0000, -52.625
1319.2000, -52.366
1319.4000, -51.868
1319.6000, -51.777
1319.8000, -51.514
1320.0000, -51.227
1320.2000, -50.840
1320.4000, -50.724
1320.6000, -50.520
1320.8000, -50.386
1321.0000, -50.221
1321.2000, -50.033
1321.4000, -49.965
1321.6000, -50.013
1321.8000, -49.905
1322.0000, -49.805
1322.2000, -49.981
1322.4000, -49.940
1322.6000, -50.095
1322.8000, -50.234
1323.0000, -50.082
1323.2000, -50.244
1323.4000, -50.392
1323.6000, -50.657
1323.8000, -50.644
1324.0000, -50.811
1324.2000, -50.852
1324.4000, -51.163
1324.6000, -51.184
1324.8000, -51.384
1325.0000, -51.477
1325.2000, -51.486
1325.4000, -51.696
1325.6000, -51.875
1325.8000, -51.797
1326.0000, -51.921
1326.2000, -52.000
1326.4000, -52.240
1326.6000, -52.515
1326.8000, -52.545
1327.0000, -52.665
1327.2000, -52.898
1327.4000, -53.203
1327.6000, -53.568
1327.8000, -53.882
1328.0000, -54.063
1328.2000, -54.521
1328.4000, -55.008
1328.6000, -55.288
1328.8000, -55.791
1329.0000, -56.543
1329.2000, -57.052
1329.4000, -57.750
1329.6000, -58.351
1329.8000, -58.846
1330.0000, -59.374
1330.2000, -60.394
1330.4000, -61.081
1330.6000, -61.607
1330.8000, -62.275
1331.0000, -62.876
1331.2000, -63.424
1331.4000, -63.657
1331.6000, -63.673
1331.8000, -63.708
1332.0000, -63.072
1332.2000, -62.610
1332.4000, -61.988
1332.6000, -61.254
1332.8000, -60.552
1333.0000, -59.671
1333.2000, -58.890
1333.4000, -58.369
1333.6000, -57.786
1333.8000, -56.920
1334.0000, -56.583
1334.2000, -55.956
1334.4000, -55.391
1334.6000, -55.082
1334.8000, -54.729
1335.0000, -54.294
1335.2000, -54.066
1335.4000, -53.926
1335.6000, -53.421
1335.8000, -53.258
1336.0000, -53.002
1336.2000, -52.843
1336.4000, -52.597
1336.6000, -52.542
1336.8000, -52.315
1337.0000, -51.931
1337.2000, -51.915
1337.4000, -51.634
1337.6000, -51.585
1337.8000, -51.209
1338.0000, -51.091
1338.2000, -51.071
1338.4000, -50.821
1338.6000, -50.598
1338.8000, -50.605
1339.0000, -50.268
1339.2000, -50.166
1339.4000, -50.140
1339.6000, -50.040
1339.8000, -49.996
1340.0000, -49.821
1340.2000, -49.853
1340.4000, -49.912
1340.6000, -49.832
1340.8000, -50.023
1341.0000, -49.861
1341.2000, -49.950
1341.4000, -50.281
1341.6000, -50.357
1341.8000, -50.549
1342.0000, -50.726
1342.2000, -50.874
1342.4000, -51.018
1342.6000, -51.326
1342.8000, -51.539
1343.0000, -51.809
1343.2000, -52.033
1343.4000, -52.133
1343.6000, -52.486
1343.8000, -52.599
1344.0000, -53.038
1344.2000, -53.462
1344.4000, -53.735
1344.6000, -53.906
1344.8000, -54.423
1345.0000, -54.792
1345.2000, -55.193
1345.4000, -55.501
1345.6000, -56.040
1345.8000, -56.548
1346.0000, -57.060
1346.2000, -57.522
1346.4000, -58.174
1346.6000, -58.993
1346.8000, -59.412
1347.0000, -60.034
1347.2000, -60.608
1347.4000, -60.937
1347.6000, -60.995
1347.8000, -61.074
1348.0000, -61.014
1348.2000, -60.615
1348.4000, -60.241
1348.6000, -59.706
1348.8000, -58.886
1349.0000, -58.337
1349.2000, -57.750
1349.4000, -57.217
1349.6000, -56.773
1349.8000, -56.216
1350.0000, -55.630
1350.2000, -55.065
1350.4000, -54.617
1350.6000, -53.929
1350.8000, -53.576
1351.0000, -53.309
1351.2000, -52.695
1351.4000, -52.448
1351.6000, -51.987
1351.8000, -51.703
1352.0000, -51.477
1352.2000, -51.063
1352.4000, -50.770
1352.6000, -50.698
1352.8000, -50.377
1353.0000, -50.197
1353.2000, -49.959
1353.4000, -49.867
1353.6000, -49.795
1353.8000, -49.610
1354.0000, -49.758
1354.2000, -49.770
1354.4000, -49.587
1354.6000, -49.955
1354.8000, -49.704
1355.0000, -49.782
1355.2000, -49.931
1355.4000, -49.967
1355.6000, -49.926
1355.8000, -49.953
1356.0000, -50.225
1356.2000, -50.038
1356.4000, -49.962
1356.6000, -50.020
1356.8000, -50.080
1357.0000, -50.089
1357.2000, -50.276
1357.4000, -50.233
1357.6000, -50.263
1357.8000, -50.282
1358.0000, -50.496
1358.2000, -50.491
1358.4000, -50.625
1358.6000, -50.811
1358.8000, -50.817
1359.0000, -51.181
1359.2000, -51.361
1359.4000, -51.603
1359.6000, -51.726
1359.8000, -52.189
1360.0000, -52.416
1360.2000, -52.618
1360.4000, -52.908
1360.6000, -53.454
1360.8000, -54.083
1361.0000, -54.378
1361.2000, -55.064
1361.4000, -55.516
1361.6000, -56.050
1361.8000, -56.644
1362.0000, -57.506
1362.2000, -58.082
1362.4000, -58.593
1362.6000, -59.146
1362.8000, -59.861
1363.0000, -60.193
1363.2000, -60.706
1363.4000, -61.339
1363.6000, -61.607
1363.8000, -62.169
1364.0000, -62.064
1364.2000, -62.207
1364.4000, -62.124
1364.6000, -61.702
1364.8000, -61.243
1365.0000, -60.312
1365.2000, -59.803
1365.4000, -59.188
1365.6000, -58.204
1365.8000, -57.765
1366.0000, -56.978
1366.2000, -56.366
1366.4000, -55.786
1366.6000, -55.328
1366.8000, -54.847
1367.0000, -54.379
1367.2000, -54.198
1367.4000, -53.763
1367.6000, -53.711
1367.8000, -53.252
1368.0000, -52.864
1368.2000, -52.767
1368.4000, -52.645
1368.6000, -52.177
1368.8000, -52.010
1369.0000, -51.811
1369.2000, -51.393
1369.4000, -51.073
1369.6000, -51.009
1369.8000, -50.832
1370.0000, -50.439
1370.2000, -50.341
1370.4000, -50.229
1370.6000, -49.930
1370.8000, -49.894
1371.0000, -49.739
1371.2000, -49.441
1371.4000, -49.281
1371.6000, -49.003
1371.8000, -48.898
1372.0000, -49.006
1372.2000, -48.672
1372.4000, -48.834
1372.6000, -48.754
1372.8000, -48.635
1373.0000, -48.645
1373.2000, -48.532
1373.4000, -48.529
1373.6000, -48.611
1373.8000, -48.883
1374.0000, -48.940
1374.2000, -48.834
1374.4000, -49.255
1374.6000, -49.440
1374.8000, -49.463
1375.0000, -49.494
1375.2000, -49.943
1375.4000, -50.089
1375.6000, -50.213
1375.8000, -50.302
1376.0000, -50.512
1376.2000, -50.636
1376.4000, -50.929
1376.6000, -51.161
1376.8000, -51.430
1377.0000, -51.715
1377.2000, -51.861
1377.4000, -52.143
1377.6000, -52.225
1377.8000, -52.566
1378.0000, -53.043
1378.2000, -53.360
1378.4000, -53.770
1378.6000, -54.505
1378.8000, -54.930
1379.0000, -55.267
1379.2000, -56.042
1379.4000, -56.357
1379.6000, -57.036
1379.8000, -57.604
1380.0000, -57.638
1380.2000, -58.956
1380.4000, -60.096
1380.6000, -60.402
1380.8000, -60.231
1381.0000, -60.631
1381.2000, -60.334
1381.4000, -59.938
1381.6000, -58.887
1381.8000, -58.358
1382.0000, -58.181
1382.2000, -58.433
1382.4000, -58.590
1382.6000, -57.688
1382.8000, -56.370
1383.0000, -55.555
1383.2000, -54.916
1383.4000, -54.217
1383.6000, -53.828
1383.8000, -53.450
1384.0000, -53.040
1384.2000, -52.389
1384.4000, -51.904
1384.6000, -51.379
1384.8000, -51.108
1385.0000, -50.560
1385.2000, -50.388
1385.4000, -50.123
1385.6000, -49.652
1385.8000, -49.138
1386.0000, -49.074
1386.2000, -48.842
1386.4000, -48.509
1386.6000, -48.475
1386.8000, -48.077
1387.0000, -47.951
1387.2000, -47.914
1387.4000, -47.811
1387.6000, -47.873
1387.8000, -47.846
1388.0000, -47.942
1388.2000, -47.727
1388.4000, -47.638
1388.6000, -47.667
1388.8000, -47.396
1389.0000, -47.273
1389.2000, -47.215
1389.4000, -47.182
1389.6000, -47.234
1389.8000, -47.295
1390.0000, -47.234
1390.2000, -47.151
1390.4000, -47.243
1390.6000, -47.245
1390.8000, -47.200
1391.0000, -47.118
1391.2000, -47.160
1391.4000, -47.125
1391.6000, -47.347
1391.8000, -47.381
1392.0000, -47.543
1392.2000, -47.725
1392.4000, -47.843
1392.6000, -48.122
1392.8000, -48.081
1393.0000, -48.375
1393.2000, -48.340
1393.4000, -48.579
1393.6000, -48.704
1393.8000, -48.996
1394.0000, -49.086
1394.2000, -49.598
1394.4000, -50.072
1394.6000, -50.591
1394.8000, -51.118
1395.0000, -51.558
1395.2000, -51.752
1395.4000, -52.151
1395.6000, -52.435
1395.8000, -52.911
1396.0000, -53.794
1396.2000, -54.245
1396.4000, -54.791
1396.6000, -55.442
1396.8000, -56.054
1397.0000, -56.401
1397.2000, -56.985
1397.4000, -57.567
1397.6000, -58.028
1397.8000, -58.450
1398.0000, -58.567
1398.2000, -58.641
1398.4000, -58.653
1398.6000, -58.300
1398.8000, -57.870
1399.0000, -57.265
1399.2000, -56.737
1399.4000, -56.229
1399.6000, -55.703
1399.8000, -55.334
1400.0000, -54.548
1400.2000, -53.972
1400.4000, -53.624
1400.6000, -52.897
1400.8000, -52.557
1401.0000, -52.217
1401.2000, -51.697
1401.4000, -51.347
1401.6000, -51.006
1401.8000, -50.617
1402.0000, -50.351
1402.2000, -49.937
1402.4000, -49.713
1402.6000, -49.444
1402.8000, -49.127
1403.0000, -48.778
1403.2000, -48.553
1403.4000, -48.281
1403.6000, -48.049
1403.8000, -47.630
1404.0000, -47.586
1404.2000, -47.405
1404.4000, -47.337
1404.6000, -47.362
1404.8000, -47.190
1405.0000, -47.085
1405.2000, -46.864
1405.4000, -46.553
1405.6000, -46.210
1405.8000, -45.990
1406.0000, -46.090
1406.2000, -45.888
1406.4000, -45.947
1406.6000, -45.839
1406.8000, -45.924
1407.0000, -45.849
1407.2000, -46.020
1407.4000, -45.962
1407.6000, -45.980
1407.8000, -45.952
1408.0000, -45.978
1408.2000, -45.905
1408.4000, -46.160
1408.6000, -46.198
1408.8000, -46.312
1409.0000, -46.401
1409.2000, -46.618
1409.4000, -46.738
1409.6000, -46.902
1409.8000, -47.026
1410.0000, -47.001
1410.2000, -46.983
1410.4000, -47.190
1410.6000, -47.379
1410.8000, -47.550
1411.0000, -47.586
1411.2000, -47.763
1411.4000, -48.063
1411.6000, -48.204
1411.8000, -48.401
1412.0000, -48.624
1412.2000, -48.954
1412.4000, -49.216
1412.6000, -49.612
1412.8000, -49.972
1413.0000, -50.026
1413.2000, -50.771
1413.4000, -51.053
1413.6000, -51.546
1413.8000, -52.072
1414.0000, -52.771
1414.2000, -53.488
1414.4000, -54.072
1414.6000, -54.591
1414.8000, -55.154
1415.0000, -55.762
1415.2000, -56.304
1415.4000, -56.692
1415.6000, -57.142
1415.8000, -57.368
1416.0000, -57.456
1416.2000, -57.384
1416.4000, -57.120
1416.6000, -56.675
1416.8000, -56.181
1417.0000, -55.709
1417.2000, -55.167
1417.4000, -54.634
1417.6000, -53.896
1417.8000, -53.339
1418.0000, -52.792
1418.2000, -52.153
1418.4000, -51.494
1418.6000, -51.125
1418.8000, -50.489
1419.0000, -50.083
1419.2000, -49.645
1419.4000, -49.190
1419.6000, -48.882
1419.8000, -48.471
1420.0000, -48.069
1420.2000, -47.684
1420.4000, -47.336
1420.6000, -47.068
1420.8000, -46.775
1421.0000, -46.617
1421.2000, -46.340
1421.4000, -46.141
1421.6000, -45.991
1421.8000, -45.702
1422.0000, -45.601
1422.2000, -45.510
1422.4000, -45.368
1422.6000, -45.276
1422.8000, -45.122
1423.0000, -45.006
1423.2000, -44.905
1423.4000, -44.962
1423.6000, -44.868
1423.8000, -44.738
1424.0000, -44.646
1424.2000, -44.612
1424.4000, -44.590
1424.6000, -44.465
1424.8000, -44.320
1425.0000, -44.366
1425.2000, -44.240
1425.4000, -44.413
1425.6000, -44.359
1425.8000, -44.276
1426.0000, -44.346
1426.2000, -44.173
1426.4000, -44.253
1426.6000, -44.268
1426.8000, -44.302
1427.0000, -44.384
1427.2000, -44.421
1427.4000, -44.581
1427.6000, -44.714
1427.8000, -44.793
1428.0000, -45.041
1428.2000, -45.012
1428.4000, -45.193
1428.6000, -45.432
1428.8000, -45.576
1429.0000, -45.751
1429.2000, -45.984
1429.4000, -46.385
1429.6000, -46.590
1429.8000, -46.765
1430.0000, -47.051
1430.2000, -47.529
1430.4000, -47.702
1430.6000, -48.224
1430.8000, -48.486
1431.0000, -48.849
1431.2000, -49.292
1431.4000, -49.497
1431.6000, -50.105
1431.8000, -50.661
1432.0000, -51.050
1432.2000, -51.498
1432.4000, -52.048
1432.6000, -52.510
1432.8000, -53.095
1433.0000, -53.513
1433.2000, -54.094
1433.4000, -54.790
1433.6000, -55.078
1433.8000, -55.455
1434.0000, -55.699
1434.2000, -55.891
1434.4000, -55.849
1434.6000, -55.511
1434.8000, -55.084
1435.0000, -54.554
1435.2000, -54.065
1435.4000, -53.395
1435.6000, -52.857
1435.8000, -52.197
1436.0000, -51.696
1436.2000, -51.068
1436.4000, -50.568
1436.6000, -49.971
1436.8000, -49.578
1437.0000, -49.103
1437.2000, -48.653
1437.4000, -48.353
1437.6000, -47.903
1437.8000, -47.591
1438.0000, -47.384
1438.2000, -46.833
1438.4000, -46.502
1438.6000, -46.220
1438.8000, -45.968
1439.0000, -45.653
1439.2000, -45.386
1439.4000, -44.946
1439.6000, -44.892
1439.8000, -44.587
1440.0000, -44.275
1440.2000, -44.099
1440.4000, -43.900
1440.6000, -43.666
1440.8000, -43.655
1441.0000, -43.489
1441.2000, -43.356
1441.4000, -43.098
1441.6000, -43.122
1441.8000, -42.896
1442.0000, -42.783
1442.2000, -42.521
1442.4000, -42.551
1442.6000, -42.407
1442.8000, -42.549
1443.0000, -42.443
1443.2000, -42.484
1443.4000, -42.382
1443.6000, -42.323
1443.8000, -42.363
1444.0000, -42.398
1444.2000, -42.437
1444.4000, -42.413
1444.6000, -42.468
1444.8000, -42.474
1445.0000, -42.599
1445.2000, -42.636
1445.4000, -42.547
1445.6000, -42.761
1445.8000, -42.839
1446.0000, -42.951
1446.2000, -42.992
1446.4000, -43.016
1446.6000, -43.099
1446.8000, -43.271
1447.0000, -43.387
1447.2000, -43.414
1447.4000, -43.674
1447.6000, -43.802
1447.8000, -44.027
1448.0000, -44.228
1448.2000, -44.418
1448.4000, -44.563
1448.6000, -44.776
1448.8000, -45.113
1449.0000, -45.506
1449.2000, -45.640
1449.4000, -45.999
1449.6000, -46.377
1449.8000, -46.777
1450.0000, -47.100
1450.2000, -47.622
1450.4000, -48.095
1450.6000, -48.491
1450.8000, -49.033
1451.0000, -49.498
1451.2000, -50.054
1451.4000, -50.573
1451.6000, -51.295
1451.8000, -51.712
1452.0000, -52.299
1452.2000, -52.802
1452.4000, -53.186
1452.6000, -53.555
1452.8000, -53.727
1453.0000, -53.695
1453.2000, -53.579
1453.4000, -53.291
1453.6000, -52.918
1453.8000, -52.236
1454.0000, -51.644
1454.2000, -51.038
1454.4000, -50.414
1454.6000, -49.965
1454.8000, -49.132
1455.0000, -48.501
1455.2000, -47.930
1455.4000, -47.322
1455.6000, -46.921
1455.8000, -46.394
1456.0000, -45.886
1456.2000, -45.545
1456.4000, -45.195
1456.6000, -44.775
1456.8000, -44.407
1457.0000, -44.062
1457.2000, -43.909
1457.4000, -43.450
1457.6000, -43.142
1457.8000, -42.827
1458.0000, -42.616
1458.2000, -42.313
1458.4000, -42.213
1458.6000, -41.977
1458.8000, -41.907
1459.0000, -41.755
1459.2000, -41.428
1459.4000, -41.292
1459.6000, -41.098
1459.8000, -41.000
1460.0000, -40.865
1460.2000, -40.737
1460.4000, -40.647
1460.6000, -40.525
1460.8000, -40.392
1461.0000, -40.315
1461.2000, -40.313
1461.4000, -40.099
1461.6000, -40.081
1461.8000, -39.941
1462.0000, -39.960
1462.2000, -39.769
1462.4000, -39.850
1462.6000, -39.958
1462.8000, -39.813
1463.0000, -39.798
1463.2000, -39.928
1463.4000, -39.922
1463.6000, -39.847
1463.8000, -39.894
1464.0000, -39.892
1464.2000, -39.973
1464.4000, -39.939
1464.6000, -40.184
1464.8000, -40.066
1465.0000, -40.349
1465.2000, -40.332
1465.4000, -40.614
1465.6000, -40.724
1465.8000, -40.935
1466.0000, -41.057
1466.2000, -41.185
1466.4000, -41.345
1466.6000, -41.573
1466.8000, -41.917
1467.0000, -42.111
1467.2000, -42.288
1467.4000, -42.623
1467.6000, -42.910
1467.8000, -43.135
1468.0000, -43.488
1468.2000, -43.801
1468.4000, -44.121
1468.6000, -44.388
1468.8000, -44.882
1469.0000, -45.240
1469.2000, -45.616
1469.4000, -46.156
1469.6000, -46.521
1469.8000, -47.212
1470.0000, -47.457
1470.2000, -48.066
1470.4000, -48.580
1470.6000, -49.287
1470.8000, -49.817
1471.0000, -50.391
1471.2000, -50.877
1471.4000, -51.428
1471.6000, -51.844
1471.8000, -52.132
1472.0000, -52.334
1472.2000, -52.308
1472.4000, -52.163
1472.6000, -51.813
1472.8000, -51.520
1473.0000, -50.935
1473.2000, -50.465
1473.4000, -49.915
1473.6000, -49.370
1473.8000, -48.864
1474.0000, -48.155
1474.2000, -47.752
1474.4000, -47.265
1474.6000, -46.766
1474.8000, -46.241
1475.0000, -45.976
1475.2000, -45.397
1475.4000, -44.967
1475.6000, -44.561
1475.8000, -44.319
1476.0000, -44.041
1476.2000, -43.640
1476.4000, -43.393
1476.6000, -43.170
1476.8000, -42.861
1477.0000, -42.505
1477.2000, -42.370
1477.4000, -42.110
1477.6000, -42.032
1477.8000, -41.883
1478.0000, -41.600
1478.2000, -41.430
1478.4000, -41.261
1478.6000, -41.144
1478.8000, -40.992
1479.0000, -40.934
1479.2000, -40.713
1479.4000, -40.701
1479.6000, -40.470
1479.8000, -40.433
1480.0000, -40.315
1480.2000, -40.311
1480.4000, -40.251
1480.6000, -40.282
1480.8000, -40.175
1481.0000, -40.124
1481.2000, -40.177
1481.4000, -40.085
1481.6000, -40.215
1481.8000, -40.190
1482.0000, -40.158
1482.2000, -40.091
1482.4000, -40.363
1482.6000, -40.245
1482.8000, -40.353
1483.0000, -40.488
1483.2000, -40.373
1483.4000, -40.355
1483.6000, -40.694
1483.8000, -40.671
1484.0000, -40.744
1484.2000, -40.758
1484.4000, -41.031
1484.6000, -41.066
1484.8000, -41.026
1485.0000, -41.330
1485.2000, -41.517
1485.4000, -41.533
1485.6000, -41.728
1485.8000, -42.086
1486.0000, -42.085
1486.2000, -42.396
1486.4000, -42.503
1486.6000, -42.773
1486.8000, -43.002
1487.0000, -43.167
1487.2000, -43.426
1487.4000, -43.854
1487.6000, -44.169
1487.8000, -44.426
1488.0000, -44.810
1488.2000, -45.130
1488.4000, -45.724
1488.6000, -45.968
1488.8000, -46.487
1489.0000, -46.847
1489.2000, -47.417
1489.4000, -47.982
1489.6000, -48.416
1489.8000, -48.962
1490.0000, -49.562
1490.2000, -50.126
1490.4000, -50.740
1490.6000, -51.264
1490.8000, -51.872
1491.0000, -52.274
1491.2000, -52.703
1491.4000, -53.193
1491.6000, -53.379
1491.8000, -53.562
1492.0000, -53.437
1492.2000, -53.084
1492.4000, -52.856
1492.6000, -52.258
1492.8000, -51.689
1493.0000, -51.251
1493.2000, -50.754
1493.4000, -49.963
1493.6000, -49.355
1493.8000, -49.103
1494.0000, -48.447
1494.2000, -47.957
1494.4000, -47.555
1494.6000, -47.129
1494.8000, -46.793
1495.0000, -46.236
1495.2000, -45.901
1495.4000, -45.498
1495.6000, -45.058
1495.8000, -44.693
1496.0000, -44.480
1496.2000, -44.223
1496.4000, -43.971
1496.6000, -43.788
1496.8000, -43.480
1497.0000, -43.382
1497.2000, -42.987
1497.4000, -42.974
1497.6000, -42.653
1497.8000, -42.431
1498.0000, -42.315
1498.2000, -42.253
1498.4000, -42.048
1498.6000, -42.000
1498.8000, -41.757
1499.0000, -41.639
1499.2000, -41.554
1499.4000, -41.552
1499.6000, -41.461
1499.8000, -41.280
1500.0000, -41.243
1500.2000, -41.191
1500.4000, -40.983
1500.6000, -41.061
1500.8000, -40.973
1501.0000, -40.912
1501.2000, -41.117
1501.4000, -41.104
1501.6000, -41.035
1501.8000, -40.880
1502.0000, -40.891
1502.2000, -41.023
1502.4000, -40.878
1502.6000, -41.086
1502.8000, -41.107
1503.0000, -41.212
1503.2000, -41.031
1503.4000, -41.147
1503.6000, -41.399
1503.8000, -41.442
1504.0000, -41.473
1504.2000, -41.528
1504.4000, -41.629
1504.6000, -41.832
1504.8000, -41.844
1505.0000, -42.118
1505.2000, -42.173
1505.4000, -42.362
1505.6000, -42.360
1505.8000, -42.615
1506.0000, -42.832
1506.2000, -43.166
1506.4000, -43.296
1506.6000, -43.557
1506.8000, -43.771
1507.0000, -43.976
1507.2000, -44.144
1507.4000, -44.537
1507.6000, -44.715
1507.8000, -45.245
1508.0000, -45.490
1508.2000, -45.711
1508.4000, -46.168
1508.6000, -46.583
1508.8000, -46.872
1509.0000, -47.426
1509.2000, -47.866
1509.4000, -48.275
1509.6000, -48.762
1509.8000, -49.345
1510.0000, -49.849
1510.2000, -50.192
1510.4000, -50.903
1510.6000, -51.428
1510.8000, -51.882
1511.0000, -52.400
1511.2000, -53.042
1511.4000, -53.484
1511.6000, -53.725
1511.8000, -54.092
1512.0000, -54.060
1512.2000, -53.998
1512.4000, -53.832
1512.6000, -53.422
1512.8000, -53.023
1513.0000, -52.634
1513.2000, -52.193
1513.4000, -51.349
1513.6000, -50.999
1513.8000, -50.469
1514.0000, -49.690
1514.2000, -49.404
1514.4000, -48.789
1514.6000, -48.318
1514.8000, -47.839
1515.0000, -47.466
1515.2000, -47.115
1515.4000, -46.598
1515.6000, -46.238
1515.8000, -46.071
1516.0000, -45.785
1516.2000, -45.505
1516.4000, -45.175
1516.6000, -44.862
1516.8000, -44.669
1517.0000, -44.406
1517.2000, -44.166
1517.4000, -43.827
1517.6000, -43.585
1517.8000, -43.499
1518.0000, -43.313
1518.2000, -43.139
1518.4000, -42.913
1518.6000, -42.782
1518.8000, -42.630
1519.0000, -42.609
1519.2000, -42.397
1519.4000, -42.327
1519.6000, -42.270
1519.8000, -42.105
1520.0000, -42.070
1520.2000, -41.883
1520.4000, -41.881
1520.6000, -41.776
1520.8000, -41.919
1521.0000, -41.699
1521.2000, -41.663
1521.4000, -41.658
1521.6000, -41.638
1521.8000, -41.625
1522.0000, -41.489
1522.2000, -41.509
1522.4000, -41.605
1522.6000, -41.520
1522.8000, -41.721
1523.0000, -41.674
1523.2000, -41.770
1523.4000, -41.734
1523.6000, -41.651
1523.8000, -41.880
1524.0000, -41.928
1524.2000, -41.893
1524.4000, -42.117
1524.6000, -42.067
1524.8000, -42.161
1525.0000, -42.342
1525.2000, -42.429
1525.4000, -42.704
1525.6000, -42.718
1525.8000, -42.997
1526.0000, -43.106
1526.2000, -43.212
1526.4000, -43.392
1526.6000, -43.516
1526.8000, -43.693
1527.0000, -43.951
1527.2000, -44.143
1527.4000, -44.304
1527.6000, -44.596
1527.8000, -44.766
1528.0000, -45.083
1528.2000, -45.521
1528.4000, -45.751
1528.6000, -46.003
1528.8000, -46.293
1529.0000, -46.607
1529.2000, -47.029
1529.4000, -47.462
1529.6000, -47.760
1529.8000, -48.258
1530.0000, -48.696
1530.2000, -49.014
1530.4000, -49.690
1530.6000, -50.032
1530.8000, -50.745
1531.0000, -51.310
1531.2000, -51.774
1531.4000, -52.289
1531.6000, -52.916
1531.8000, -53.283
1532.0000, -53.742
1532.2000, -54.261
1532.4000, -54.574
1532.6000, -54.758
1532.8000, -54.816
1533.0000, -54.643
1533.2000, -54.453
1533.4000, -54.093
1533.6000, -53.712
1533.8000, -53.171
1534.0000, -52.758
1534.2000, -52.061
1534.4000, -51.674
1534.6000, -51.137
1534.8000, -50.412
1535.0000, -50.033
1535.2000, -49.516
1535.4000, -49.053
1535.6000, -48.720
1535.8000, -48.232
1536.0000, -47.832
1536.2000, -47.345
1536.4000, -47.125
1536.6000, -46.666
1536.8000, -46.453
1537.0000, -46.174
1537.2000, -45.804
1537.4000, -45.633
1537.6000, -45.380
1537.8000, -45.240
1538.0000, -44.926
1538.2000, -44.649
1538.4000, -44.512
1538.6000, -44.290
1538.8000, -44.145
1539.0000, -44.019
1539.2000, -43.592
1539.4000, -43.743
1539.6000, -43.325
1539.8000, -43.325
1540.0000, -43.091
1540.2000, -42.980
1540.4000, -42.945
1540.6000, -42.959
1540.8000, -42.735
1541.0000, -42.571
1541.2000, -42.607
1541.4000, -42.517
1541.6000, -42.445
1541.8000, -42.561
1542.0000, -42.337
1542.2000, -42.290
1542.4000, -42.365
1542.6000, -42.205
1542.8000, -42.114
1543.0000, -42.198
1543.2000, -42.256
1543.4000, -42.209
1543.6000, -42.127
1543.8000, -42.158
1544.0000, -42.159
1544.2000, -42.287
1544.4000, -42.263
1544.6000, -42.388
1544.8000, -42.323
1545.0000, -42.416
1545.2000, -42.504
1545.4000, -42.591
1545.6000, -42.753
1545.8000, -42.677
1546.0000, -42.716
1546.2000, -42.891
1546.4000, -43.009
1546.6000, -43.091
1546.8000, -43.273
1547.0000, -43.394
1547.2000, -43.612
1547.4000, -43.686
1547.6000, -43.899
1547.8000, -43.980
1548.0000, -44.195
1548.2000, -44.458
1548.4000, -44.698
1548.6000, -44.810
1548.8000, -45.077
1549.0000, -45.240
1549.2000, -45.591
1549.4000, -45.669
1549.6000, -46.039
1549.8000, -46.350
1550.0000, -46.585
1550.2000, -46.928
1550.4000, -47.380
1550.6000, -47.656
1550.8000, -48.165
1551.0000, -48.332
1551.2000, -48.986
1551.4000, -49.494
1551.6000, -49.827
1551.8000, -50.320
1552.0000, -50.712
1552.2000, -51.383
1552.4000, -51.709
1552.6000, -52.460
1552.8000, -52.957
1553.0000, -53.398
1553.2000, -53.957
1553.4000, -54.471
1553.6000, -54.817
1553.8000, -54.984
1554.0000, -55.295
1554.2000, -55.267
1554.4000, -55.057
1554.6000, -54.864
1554.8000, -54.564
1555.0000, -54.058
1555.2000, -53.645
1555.4000, -53.137
1555.6000, -52.549
1555.8000, -52.223
1556.0000, -51.549
1556.2000, -51.288
1556.4000, -50.614
1556.6000, -50.169
1556.8000, -49.750
1557.0000, -49.112
1557.2000, -48.976
1557.4000, -48.401
1557.6000, -48.218
1557.8000, -47.676
1558.0000, -47.454
1558.2000, -47.084
1558.4000, -46.877
1558.6000, -46.413
1558.8000, -46.165
1559.0000, -45.976
1559.2000, -45.700
1559.4000, -45.579
1559.6000, -45.192
1559.8000, -44.960
1560.0000, -44.814
1560.2000, -44.724
1560.4000, -44.563
1560.6000, -44.412
1560.8000, -44.114
1561.0000, -44.082
1561.2000, -43.962
1561.4000, -44.024
1561.6000, -43.712
1561.8000, -43.588
1562.0000, -43.626
1562.2000, -43.459
1562.4000, -43.194
1562.6000, -43.261
1562.8000, -43.089
1563.0000, -43.059
1563.2000, -42.993
1563.4000, -43.001
1563.6000, -42.885
1563.8000, -42.983
1564.0000, -42.942
1564.2000, -42.812
1564.4000, -42.840
1564.6000, -42.666
1564.8000, -42.738
1565.0000, -42.766
1565.2000, -42.663
1565.4000, -42.758
1565.6000, -42.800
1565.8000, -42.724
1566.0000, -42.845
1566.2000, -42.914
1566.4000, -42.865
1566.6000, -42.940
1566.8000, -43.125
1567.0000, -42.957
1567.2000, -43.192
1567.4000, -43.326
1567.6000, -43.226
1567.8000, -43.416
1568.0000, -43.578
1568.2000, -43.712
1568.4000, -43.854
1568.6000, -44.084
1568.8000, -44.157
1569.0000, -44.175
1569.2000, -44.395
1569.4000, -44.402
1569.6000, -44.564
1569.8000, -44.821
1570.0000, -44.966
1570.2000, -45.380
1570.4000, -45.638
1570.6000, -45.727
1570.8000, -45.984
1571.0000, -46.245
1571.2000, -46.429
1571.4000, -46.865
1571.6000, -47.155
1571.8000, -47.438
1572.0000, -47.741
1572.2000, -48.047
1572.4000, -48.387
1572.6000, -48.792
1572.8000, -49.246
1573.0000, -49.662
1573.2000, -50.174
1573.4000, -50.512
1573.6000, -51.022
1573.8000, -51.634
1574.0000, -52.002
1574.2000, -52.367
1574.4000, -52.945
1574.6000, -53.417
1574.8000, -53.912
1575.0000, -54.429
1575.2000, -54.893
1575.4000, -55.363
1575.6000, -55.810
1575.8000, -55.959
1576.0000, -56.176
1576.2000, -56.109
1576.4000, -56.033
1576.6000, -55.663
1576.8000, -55.585
1577.0000, -54.997
1577.2000, -54.559
1577.4000, -54.055
1577.6000, -53.565
1577.8000, -52.963
1578.0000, -52.598
1578.2000, -52.119
1578.4000, -51.543
1578.6000, -51.138
1578.8000, -50.838
1579.0000, -50.471
1579.2000, -49.877
1579.4000, -49.485
1579.6000, -49.105
1579.8000, -48.771
1580.0000, -48.623
1580.2000, -48.257
1580.4000, -47.904
1580.6000, -47.747
1580.8000, -47.481
1581.0000, -47.152
1581.2000, -46.910
1581.4000, -46.702
1581.6000, -46.594
1581.8000, -46.266
1582.0000, -46.065
1582.2000, -46.001
1582.4000, -45.794
1582.6000, -45.622
1582.8000, -45.446
1583.0000, -45.202
1583.2000, -45.120
1583.4000, -45.112
1583.6000, -44.934
1583.8000, -44.804
1584.0000, -44.733
1584.2000, -44.624
1584.4000, -44.424
1584.6000, -44.425
1584.8000, -44.302
1585.0000, -44.276
1585.2000, -44.112
1585.4000, -44.208
1585.6000, -44.089
1585.8000, -44.103
1586.0000, -43.844
1586.2000, -43.926
1586.4000, -43.931
1586.6000, -43.855
1586.8000, -43.948
1587.0000, -43.845
1587.2000, -43.992
1587.4000, -43.879
1587.6000, -43.768
1587.8000, -44.054
1588.0000, -44.059
1588.2000, -43.994
1588.4000, -44.115
1588.6000, -44.164
1588.8000, -44.122
1589.0000, -44.042
1589.2000, -44.355
1589.4000, -44.441
1589.6000, -44.503
1589.8000, -44.444
1590.0000, -44.688
1590.2000, -44.807
1590.4000, -44.819
1590.6000, -44.896
1590.8000, -45.049
1591.0000, -45.335
1591.2000, -45.309
1591.4000, -45.509
1591.6000, -45.639
1591.8000, -45.913
1592.0000, -46.055
1592.2000, -46.248
1592.4000, -46.462
1592.6000, -46.634
1592.8000, -46.608
1593.0000, -46.921
1593.2000, -47.209
1593.4000, -47.386
1593.6000, -47.787
1593.8000, -47.969
1594.0000, -48.530
1594.2000, -48.556
1594.4000, -48.740
1594.6000, -49.271
1594.8000, -49.580
1595.0000, -49.910
1595.2000, -50.291
1595.4000, -50.793
1595.6000, -51.175
1595.8000, -51.741
1596.0000, -52.029
1596.2000, -52.415
1596.4000, -52.913
1596.6000, -53.479
1596.8000, -54.015
1597.0000, -54.565
1597.2000, -55.001
1597.4000, -55.550
1597.6000, -55.961
1597.8000, -56.425
1598.0000, -57.001
1598.2000, -57.055
1598.4000, -57.373
1598.6000, -57.646
1598.8000, -57.665
1599.0000, -57.577
1599.2000, -57.399
1599.4000, -56.999
1599.6000, -56.413
1599.8000, -56.054
1600.0000, -55.442
1600.2000, -55.047
1600.4000, -54.604
1600.6000, -54.094
1600.8000, -53.619
1601.0000, -53.164
1601.2000, -52.680
1601.4000, -52.221
1601.6000, -51.995
1601.8000, -51.497
1602.0000, -51.107
1602.2000, -51.038
1602.4000, -50.507
1602.6000, -50.404
1602.8000, -50.064
1603.0000, -49.852
1603.2000, -49.353
1603.4000, -49.208
1603.6000, -48.937
1603.8000, -48.694
1604.0000, -48.486
1604.2000, -48.118
1604.4000, -48.072
1604.6000, -47.855
1604.8000, -47.511
1605.0000, -47.256
1605.2000, -47.275
1605.4000, -47.190
1605.6000, -47.073
1605.8000, -46.970
1606.0000, -46.884
1606.2000, -46.513
1606.4000, -46.534
1606.6000, -46.255
1606.8000, -46.283
1607.0000, -46.403
1607.2000, -46.257
1607.4000, -46.172
1607.6000, -46.280
1607.8000, -46.269
1608.0000, -46.164
1608.2000, -46.083
1608.4000, -45.979
1608.6000, -46.176
1608.8000, -46.090
1609.0000, -45.938
1609.2000, -46.005
1609.4000, -46.076
1609.6000, -46.008
1609.8000, -46.221
1610.0000, -46.033
1610.2000, -46.131
1610.4000, -46.207
1610.6000, -46.223
1610.8000, -46.186
1611.0000, -46.301
1611.2000, -46.228
1611.4000, -46.265
1611.6000, -46.448
1611.8000, -46.575
1612.0000, -46.497
1612.2000, -46.587
1612.4000, -46.654
1612.6000, -46.587
1612.8000, -46.565
1613.0000, -46.795
1613.2000, -46.760
1613.4000, -46.805
1613.6000, -47.059
1613.8000, -47.300
1614.0000, -47.429
1614.2000, -47.307
1614.4000, -47.594
1614.6000, -47.688
1614.8000, -47.820
1615.0000, -48.050
1615.2000, -48.234
1615.4000, -48.500
1615.6000, -48.733
1615.8000, -48.843
1616.0000, -48.912
1616.2000, -49.049
1616.4000, -49.354
1616.6000, -49.885
1616.8000, -50.098
1617.0000, -50.427
1617.2000, -50.821
1617.4000, -50.987
1617.6000, -51.047
1617.8000, -51.598
1618.0000, -51.887
1618.2000, -52.179
1618.4000, -52.625
1618.6000, -53.123
1618.8000, -53.508
1619.0000, -53.913
1619.2000, -54.350
1619.4000, -54.880
1619.6000, -55.282
1619.8000, -55.936
1620.0000, -56.305
1620.2000, -56.866
1620.4000, -57.607
1620.6000, -57.847
1620.8000, -58.325
1621.0000, -58.893
1621.2000, -59.375
1621.4000, -59.509
1621.6000, -59.616
1621.8000, -59.761
1622.0000, -59.664
1622.2000, -59.593
1622.4000, -59.377
1622.6000, -59.011
1622.8000, -58.551
1623.0000, -58.187
1623.2000, -57.798
1623.4000, -57.279
1623.6000, -56.877
1623.8000, -56.498
1624.0000, -56.064
1624.2000, -55.415
1624.4000, -55.090
1624.6000, -54.675
1624.8000, -54.321
1625.0000, -53.902
1625.2000, -53.665
1625.4000, -53.164
1625.6000, -52.780
1625.8000, -52.525
1626.0000, -52.291
1626.2000, -51.858
1626.4000, -51.641
1626.6000, -51.364
1626.8000, -51.292
1627.0000, -51.025
1627.2000, -50.897
1627.4000, -50.586
1627.6000, -50.299
1627.8000, -50.369
1628.0000, -49.853
1628.2000, -49.927
1628.4000, -49.805
1628.6000, -49.640
1628.8000, -49.419
1629.0000, -49.419
1629.2000, -49.371
1629.4000, -49.196
1629.6000, -49.132
1629.8000, -49.266
1630.0000, -49.072
1630.2000, -49.189
1630.4000, -49.277
1630.6000, -49.255
1630.8000, -49.195
1631.0000, -48.934
1631.2000, -49.018
1631.4000, -48.878
1631.6000, -48.634
1631.8000, -48.668
1632.0000, -48.505
1632.2000, -48.295
1632.4000, -48.485
1632.6000, -48.437
1632.8000, -48.587
1633.0000, -48.443
1633.2000, -48.471
1633.4000, -48.482
1633.6000, -48.472
1633.8000, -48.293
1634.0000, -48.521
1634.2000, -48.461
1634.4000, -48.616
1634.6000, -48.577
1634.8000, -48.640
1635.0000, -48.566
1635.2000, -48.598
1635.4000, -48.733
1635.6000, -49.012
1635.8000, -48.971
1636.0000, -49.035
1636.2000, -49.237
1636.4000, -48.933
1636.6000, -49.175
1636.8000, -49.465
1637.0000, -49.486
1637.2000, -49.623
1637.4000, -49.771
1637.6000, -49.734
1637.8000, -49.854
1638.0000, -50.077
1638.2000, -50.212
1638.4000, -50.383
1638.6000, -50.515
1638.8000, -50.859
1639.0000, -50.941
1639.2000, -51.249
1639.4000, -51.258
1639.6000, -51.634
1639.8000, -51.814
1640.0000, -52.223
1640.2000, -52.290
1640.4000, -52.419
1640.6000, -52.775
1640.8000, -53.065
1641.0000, -53.224
1641.2000, -53.408
1641.4000, -53.839
1641.6000, -54.307
1641.8000, -54.710
1642.0000, -54.969
1642.2000, -55.552
1642.4000, -55.837
1642.6000, -56.458
1642.8000, -56.668
1643.0000, -57.247
1643.2000, -57.638
1643.4000, -57.997
1643.6000, -58.579
1643.8000, -59.140
1644.0000, -59.723
1644.2000, -60.271
1644.4000, -60.726
1644.6000, -61.173
1644.8000, -61.875
1645.0000, -61.912
1645.2000, -62.147
1645.4000, -62.670
1645.6000, -62.957
1645.8000, -62.818
1646.0000, -62.432
1646.2000, -62.387
1646.4000, -62.068
1646.6000, -61.547
1646.8000, -61.462
1647.0000, -60.718
1647.2000, -60.429
1647.4000, -59.994
1647.6000, -59.605
1647.8000, -59.085
1648.0000, -58.804
1648.2000, -58.109
1648.4000, -57.844
1648.6000, -57.474
1648.8000, -56.919
1649.0000, -56.555
1649.2000, -56.203
1649.4000, -55.886
1649.6000, -55.592
1649.8000, -55.307
1650.0000, -55.023
1650.2000, -54.805
1650.4000, -54.463
1650.6000, -54.239
1650.8000, -53.902
1651.0000, -53.673
1651.2000, -53.420
1651.4000, -53.359
1651.6000, -53.136
1651.8000, -53.047
1652.0000, -52.733
1652.2000, -52.598
1652.4000, -52.406
1652.6000, -52.375
1652.8000, -52.269
1653.0000, -51.956
1653.2000, -51.893
1653.4000, -52.145
1653.6000, -51.763
1653.8000, -51.598
1654.0000, -51.502
1654.2000, -51.324
1654.4000, -51.276
1654.6000, -51.281
1654.8000, -51.111
1655.0000, -50.952
1655.2000, -51.018
1655.4000, -50.970
1655.6000, -50.874
1655.8000, -50.831
1656.0000, -50.811
1656.2000, -50.841
1656.4000, -50.654
1656.6000, -50.630
1656.8000, -50.704
1657.0000, -50.829
1657.2000, -50.731
1657.4000, -50.662
1657.6000, -50.718
1657.8000, -50.875
1658.0000, -50.797
1658.2000, -50.864
1658.4000, -50.708
1658.6000, -51.036
1658.8000, -50.889
1659.0000, -51.063
1659.2000, -50.963
1659.4000, -51.189
1659.6000, -51.105
1659.8000, -51.103
1660.0000, -51.173
1660.2000, -51.331
1660.4000, -51.412
1660.6000, -51.591
1660.8000, -51.790
1661.0000, -51.874
1661.2000, -51.862
1661.4000, -51.991
1661.6000, -52.226
1661.8000, -52.349
1662.0000, -52.286
1662.2000, -52.567
1662.4000, -52.707
1662.6000, -52.762
1662.8000, -52.924
1663.0000, -53.139
1663.2000, -53.194
1663.4000, -53.411
1663.6000, -53.676
1663.8000, -53.817
1664.0000, -53.977
1664.2000, -54.203
1664.4000, -54.502
1664.6000, -54.576
1664.8000, -54.740
1665.0000, -54.918
1665.2000, -55.476
1665.4000, -55.631
1665.6000, -55.873
1665.8000, -55.992
1666.0000, -56.287
1666.2000, -56.908
1666.4000, -57.189
1666.6000, -57.289
1666.8000, -58.285
1667.0000, -58.166
1667.2000, -58.350
1667.4000, -59.798
1667.6000, -58.695
1667.8000, -60.242
1668.0000, -59.881
1668.2000, -61.538
1668.4000, -60.853
1668.6000, -62.353
1668.8000, -61.888
1669.0000, -62.551
1669.2000, -63.236
1669.4000, -64.161
1669.6000, -64.066
1669.8000, -65.445
1670.0000, -64.225
1670.2000, -64.821
1670.4000, -63.919
1670.6000, -65.761
1670.8000, -66.995
1671.0000, -64.101
1671.2000, -64.802
1671.4000, -63.992
1671.6000, -63.372
1671.8000, -63.227
1672.0000, -62.406
1672.2000, -62.085
1672.4000, -62.169
1672.6000, -60.992
1672.8000, -60.819
1673.0000, -60.064
1673.2000, -59.858
1673.4000, -59.453
1673.6000, -58.936
1673.8000, -58.493
1674.0000, -58.375
1674.2000, -57.887
1674.4000, -57.401
1674.6000, -57.275
1674.8000, -56.904
1675.0000, -57.096
1675.2000, -56.857
1675.4000, -56.610
1675.6000, -55.903
1675.8000, -56.095
1676.0000, -55.634
1676.2000, -55.732
1676.4000, -55.229
1676.6000, -55.268
1676.8000, -54.969
1677.0000, -54.803
1677.2000, -54.751
1677.4000, -54.579
1677.6000, -54.614
1677.8000, -54.207
1678.0000, -54.191
1678.2000, -54.109
1678.4000, -54.019
1678.6000, -53.835
1678.8000, -53.666
1679.0000, -53.817
1679.2000, -53.826
1679.4000, -53.641
1679.6000, -53.230
1679.8000, -53.332
1680.0000, -53.351
1680.2000, -53.416
1680.4000, -53.341
1680.6000, -53.317
1680.8000, -53.308
1681.0000, -53.268
1681.2000, -53.034
1681.4000, -53.168
1681.6000, -53.012
1681.8000, -53.318
1682.0000, -53.226
1682.2000, -53.060
1682.4000, -53.093
1682.6000, -53.242
1682.8000, -53.225
1683.0000, -53.040
1683.2000, -53.188
1683.4000, -53.301
1683.6000, -53.222
1683.8000, -52.951
1684.0000, -53.310
1684.2000, -53.386
1684.4000, -53.554
1684.6000, -53.399
1684.8000, -53.545
1685.0000, -53.661
1685.2000, -53.592
1685.4000, -53.617
1685.6000, -54.068
1685.8000, -53.706
1686.0000, -54.044
1686.2000, -54.082
1686.4000, -54.476
1686.6000, -54.085
1686.8000, -54.580
1687.0000, -54.793
1687.2000, -54.746
1687.4000, -55.312
1687.6000, -55.091
1687.8000, -54.969
1688.0000, -55.472
1688.2000, -55.615
1688.4000, -55.795
1688.6000, -55.917
1688.8000, -56.000
1689.0000, -56.561
1689.2000, -56.455
1689.4000, -56.621
1689.6000, -57.819
1689.8000, -57.988
1690.0000, -57.805
1690.2000, -58.044
1690.4000, -58.380
1690.6000, -57.910
1690.8000, -59.348
1691.0000, -58.883
1691.2000, -59.717
1691.4000, -59.488
1691.6000, -59.446
1691.8000, -61.872
1692.0000, -61.000
1692.2000, -61.512
1692.4000, -63.295
1692.6000, -61.373
1692.8000, -61.918
1693.0000, -63.250
1693.2000, -64.238
1693.4000, -62.620
1693.6000, -64.635
1693.8000, -73.025
1694.0000, -66.255
1694.2000, -63.807
1694.4000, -63.173
1694.6000, -67.994
1694.8000, -66.061
1695.0000, -72.578
1695.2000,-210.000
1695.4000, -63.413
1695.6000,-210.000
1695.8000, -65.721
1696.0000, -67.988
1696.2000, -67.516
1696.4000, -64.575
1696.6000, -72.255
1696.8000, -69.990
1697.0000, -68.426
1697.2000, -64.841
1697.4000, -64.177
1697.6000, -63.158
1697.8000, -65.546
1698.0000, -66.967
1698.2000, -61.404
1698.4000, -70.741
1698.6000, -63.070
1698.8000, -65.038
1699.0000, -62.037
1699.2000, -64.718
1699.4000, -62.317
1699.6000, -61.870
1699.8000, -62.047
1700.0000, -58.899
