70BCSV 	
// AQ6370B OPTICAL SPECTRUM ANALYZER //                 
25
"CTRWL",1500.000000
"SPAN", 400.000000
"START WL",1300.000000
"STOP WL",1700.000000
"WLFREQ", 0
"REFL",-44.2
"LSCL",10.0
"RESLN",1.000
"AVG",   1
"SMPLAUTO",      1
"SMPL",       2001
"SMPLINTVL",0.2000
"HIGH1"
"MEAS"
"LSUNT",0
"NMSKH","OFF"
"RESCOR",0
"RESPARM", 9859
"FREQPARM", 9859






"[TRACE DATA]"
1300.0000, -44.930
1300.2000, -44.691
1300.4000, -44.185
1300.6000, -43.793
1300.8000, -43.648
1301.0000, -43.388
1301.2000, -42.919
1301.4000, -42.431
1301.6000, -42.171
1301.8000, -41.971
1302.0000, -41.752
1302.2000, -41.232
1302.4000, -41.005
1302.6000, -40.615
1302.8000, -40.282
1303.0000, -40.012
1303.2000, -39.830
1303.4000, -39.561
1303.6000, -39.289
1303.8000, -39.373
1304.0000, -39.284
1304.2000, -39.014
1304.4000, -39.013
1304.6000, -39.169
1304.8000, -39.156
1305.0000, -38.929
1305.2000, -38.951
1305.4000, -38.794
1305.6000, -38.914
1305.8000, -38.906
1306.0000, -38.928
1306.2000, -38.938
1306.4000, -39.000
1306.6000, -38.932
1306.8000, -38.977
1307.0000, -38.773
1307.2000, -38.813
1307.4000, -38.985
1307.6000, -38.911
1307.8000, -38.927
1308.0000, -38.845
1308.2000, -38.940
1308.4000, -38.960
1308.6000, -38.906
1308.8000, -38.947
1309.0000, -39.163
1309.2000, -39.157
1309.4000, -39.376
1309.6000, -39.554
1309.8000, -39.647
1310.0000, -39.968
1310.2000, -40.269
1310.4000, -40.812
1310.6000, -40.892
1310.8000, -41.108
1311.0000, -41.557
1311.2000, -41.935
1311.4000, -42.276
1311.6000, -42.382
1311.8000, -42.817
1312.0000, -43.087
1312.2000, -43.519
1312.4000, -43.886
1312.6000, -43.992
1312.8000, -44.534
1313.0000, -44.727
1313.2000, -45.052
1313.4000, -45.368
1313.6000, -45.328
1313.8000, -45.756
1314.0000, -46.278
1314.2000, -46.420
1314.4000, -46.688
1314.6000, -47.100
1314.8000, -47.435
1315.0000, -47.927
1315.2000, -48.324
1315.4000, -48.665
1315.6000, -49.030
1315.8000, -49.640
1316.0000, -50.286
1316.2000, -50.682
1316.4000, -51.288
1316.6000, -51.923
1316.8000, -52.692
1317.0000, -53.292
1317.2000, -54.195
1317.4000, -54.688
1317.6000, -55.628
1317.8000, -56.424
1318.0000, -57.050
1318.2000, -57.973
1318.4000, -58.836
1318.6000, -59.623
1318.8000, -60.554
1319.0000, -61.616
1319.2000, -62.043
1319.4000, -62.823
1319.6000, -63.921
1319.8000, -64.258
1320.0000, -64.347
1320.2000, -64.346
1320.4000, -64.186
1320.6000, -63.917
1320.8000, -63.331
1321.0000, -62.661
1321.2000, -61.965
1321.4000, -61.172
1321.6000, -60.608
1321.8000, -60.141
1322.0000, -59.280
1322.2000, -58.880
1322.4000, -58.573
1322.6000, -57.972
1322.8000, -57.858
1323.0000, -57.489
1323.2000, -56.800
1323.4000, -56.746
1323.6000, -56.509
1323.8000, -56.115
1324.0000, -55.819
1324.2000, -55.665
1324.4000, -55.331
1324.6000, -55.160
1324.8000, -55.048
1325.0000, -54.492
1325.2000, -54.280
1325.4000, -54.108
1325.6000, -53.838
1325.8000, -53.402
1326.0000, -53.164
1326.2000, -52.942
1326.4000, -52.573
1326.6000, -52.405
1326.8000, -52.173
1327.0000, -51.952
1327.2000, -51.625
1327.4000, -51.465
1327.6000, -51.349
1327.8000, -51.220
1328.0000, -50.943
1328.2000, -50.872
1328.4000, -50.915
1328.6000, -50.793
1328.8000, -50.664
1329.0000, -50.626
1329.2000, -50.605
1329.4000, -50.556
1329.6000, -50.607
1329.8000, -50.604
1330.0000, -50.443
1330.2000, -50.436
1330.4000, -50.460
1330.6000, -50.384
1330.8000, -50.302
1331.0000, -50.236
1331.2000, -50.057
1331.4000, -50.063
1331.6000, -49.957
1331.8000, -49.741
1332.0000, -49.559
1332.2000, -49.594
1332.4000, -49.446
1332.6000, -49.131
1332.8000, -49.223
1333.0000, -48.998
1333.2000, -48.968
1333.4000, -48.806
1333.6000, -48.824
1333.8000, -48.753
1334.0000, -48.654
1334.2000, -48.558
1334.4000, -48.617
1334.6000, -48.674
1334.8000, -48.665
1335.0000, -48.804
1335.2000, -48.932
1335.4000, -48.878
1335.6000, -48.928
1335.8000, -48.941
1336.0000, -49.073
1336.2000, -49.236
1336.4000, -49.222
1336.6000, -49.078
1336.8000, -49.334
1337.0000, -49.394
1337.2000, -49.449
1337.4000, -49.551
1337.6000, -49.491
1337.8000, -49.501
1338.0000, -49.501
1338.2000, -49.630
1338.4000, -49.489
1338.6000, -49.487
1338.8000, -49.420
1339.0000, -49.549
1339.2000, -49.382
1339.4000, -49.156
1339.6000, -49.484
1339.8000, -49.563
1340.0000, -49.484
1340.2000, -49.660
1340.4000, -49.657
1340.6000, -49.844
1340.8000, -50.007
1341.0000, -50.219
1341.2000, -50.368
1341.4000, -50.564
1341.6000, -50.747
1341.8000, -50.886
1342.0000, -51.258
1342.2000, -51.619
1342.4000, -51.866
1342.6000, -52.063
1342.8000, -52.401
1343.0000, -52.471
1343.2000, -52.783
1343.4000, -53.061
1343.6000, -53.265
1343.8000, -53.454
1344.0000, -53.745
1344.2000, -53.925
1344.4000, -54.286
1344.6000, -54.563
1344.8000, -54.827
1345.0000, -55.165
1345.2000, -55.403
1345.4000, -55.642
1345.6000, -55.962
1345.8000, -56.350
1346.0000, -56.965
1346.2000, -57.352
1346.4000, -57.883
1346.6000, -58.136
1346.8000, -58.777
1347.0000, -59.462
1347.2000, -59.872
1347.4000, -60.913
1347.6000, -61.817
1347.8000, -62.250
1348.0000, -63.145
1348.2000, -63.918
1348.4000, -64.348
1348.6000, -64.935
1348.8000, -65.256
1349.0000, -65.154
1349.2000, -65.038
1349.4000, -64.723
1349.6000, -64.229
1349.8000, -63.690
1350.0000, -62.801
1350.2000, -62.251
1350.4000, -61.754
1350.6000, -60.740
1350.8000, -60.421
1351.0000, -59.400
1351.2000, -58.704
1351.4000, -58.464
1351.6000, -57.661
1351.8000, -57.072
1352.0000, -56.646
1352.2000, -56.193
1352.4000, -55.690
1352.6000, -55.281
1352.8000, -55.087
1353.0000, -54.515
1353.2000, -54.450
1353.4000, -54.028
1353.6000, -53.821
1353.8000, -53.466
1354.0000, -53.252
1354.2000, -52.920
1354.4000, -53.001
1354.6000, -52.918
1354.8000, -52.690
1355.0000, -52.779
1355.2000, -52.446
1355.4000, -52.425
1355.6000, -52.396
1355.8000, -52.205
1356.0000, -51.955
1356.2000, -51.851
1356.4000, -51.588
1356.6000, -51.497
1356.8000, -51.382
1357.0000, -51.326
1357.2000, -50.923
1357.4000, -50.953
1357.6000, -50.852
1357.8000, -50.572
1358.0000, -50.302
1358.2000, -50.222
1358.4000, -50.176
1358.6000, -49.858
1358.8000, -49.932
1359.0000, -49.578
1359.2000, -49.102
1359.4000, -49.412
1359.6000, -49.395
1359.8000, -49.521
1360.0000, -49.245
1360.2000, -49.130
1360.4000, -49.153
1360.6000, -49.179
1360.8000, -49.223
1361.0000, -49.346
1361.2000, -49.596
1361.4000, -49.528
1361.6000, -49.456
1361.8000, -49.569
1362.0000, -49.903
1362.2000, -49.986
1362.4000, -49.674
1362.6000, -49.820
1362.8000, -49.629
1363.0000, -49.281
1363.2000, -49.161
1363.4000, -49.413
1363.6000, -49.093
1363.8000, -49.101
1364.0000, -48.931
1364.2000, -49.185
1364.4000, -49.446
1364.6000, -49.507
1364.8000, -48.968
1365.0000, -49.033
1365.2000, -48.989
1365.4000, -48.715
1365.6000, -48.995
1365.8000, -48.766
1366.0000, -48.616
1366.2000, -48.758
1366.4000, -48.734
1366.6000, -48.513
1366.8000, -49.002
1367.0000, -48.917
1367.2000, -49.121
1367.4000, -48.997
1367.6000, -49.177
1367.8000, -49.365
1368.0000, -49.464
1368.2000, -49.806
1368.4000, -49.963
1368.6000, -49.922
1368.8000, -50.048
1369.0000, -50.306
1369.2000, -49.972
1369.4000, -50.003
1369.6000, -50.261
1369.8000, -50.300
1370.0000, -50.282
1370.2000, -50.440
1370.4000, -50.712
1370.6000, -50.688
1370.8000, -50.941
1371.0000, -50.713
1371.2000, -50.984
1371.4000, -51.057
1371.6000, -50.737
1371.8000, -51.021
1372.0000, -51.224
1372.2000, -51.217
1372.4000, -51.576
1372.6000, -51.717
1372.8000, -51.592
1373.0000, -51.968
1373.2000, -52.305
1373.4000, -52.364
1373.6000, -52.763
1373.8000, -52.971
1374.0000, -53.268
1374.2000, -53.729
1374.4000, -53.905
1374.6000, -54.375
1374.8000, -54.923
1375.0000, -55.173
1375.2000, -55.309
1375.4000, -55.931
1375.6000, -56.311
1375.8000, -56.537
1376.0000, -57.180
1376.2000, -57.607
1376.4000, -58.046
1376.6000, -58.599
1376.8000, -59.267
1377.0000, -59.626
1377.2000, -60.224
1377.4000, -60.850
1377.6000, -61.068
1377.8000, -62.113
1378.0000, -62.165
1378.2000, -62.664
1378.4000, -63.288
1378.6000, -63.673
1378.8000, -63.840
1379.0000, -64.260
1379.2000, -63.557
1379.4000, -63.111
1379.6000, -62.620
1379.8000, -62.088
1380.0000, -61.561
1380.2000, -61.090
1380.4000, -60.972
1380.6000, -60.254
1380.8000, -59.671
1381.0000, -59.069
1381.2000, -58.064
1381.4000, -57.478
1381.6000, -57.109
1381.8000, -56.450
1382.0000, -56.059
1382.2000, -56.149
1382.4000, -55.632
1382.6000, -55.391
1382.8000, -54.995
1383.0000, -54.340
1383.2000, -53.711
1383.4000, -53.395
1383.6000, -52.998
1383.8000, -52.684
1384.0000, -52.249
1384.2000, -51.784
1384.4000, -51.428
1384.6000, -51.355
1384.8000, -51.108
1385.0000, -50.771
1385.2000, -50.645
1385.4000, -50.262
1385.6000, -50.027
1385.8000, -49.495
1386.0000, -49.459
1386.2000, -49.065
1386.4000, -48.912
1386.6000, -48.552
1386.8000, -48.545
1387.0000, -48.417
1387.2000, -48.319
1387.4000, -48.314
1387.6000, -48.453
1387.8000, -48.511
1388.0000, -48.368
1388.2000, -48.177
1388.4000, -47.787
1388.6000, -47.737
1388.8000, -47.516
1389.0000, -47.461
1389.2000, -47.220
1389.4000, -47.193
1389.6000, -47.211
1389.8000, -47.263
1390.0000, -46.937
1390.2000, -46.800
1390.4000, -46.530
1390.6000, -46.667
1390.8000, -46.430
1391.0000, -46.446
1391.2000, -46.177
1391.4000, -46.129
1391.6000, -46.076
1391.8000, -46.060
1392.0000, -46.033
1392.2000, -46.233
1392.4000, -46.139
1392.6000, -45.977
1392.8000, -45.855
1393.0000, -45.729
1393.2000, -45.536
1393.4000, -45.574
1393.6000, -45.612
1393.8000, -45.649
1394.0000, -45.501
1394.2000, -45.684
1394.4000, -45.624
1394.6000, -45.939
1394.8000, -46.012
1395.0000, -45.942
1395.2000, -46.259
1395.4000, -46.138
1395.6000, -45.982
1395.8000, -46.065
1396.0000, -46.285
1396.2000, -46.433
1396.4000, -46.264
1396.6000, -46.444
1396.8000, -46.361
1397.0000, -46.188
1397.2000, -46.137
1397.4000, -46.022
1397.6000, -45.979
1397.8000, -46.178
1398.0000, -46.151
1398.2000, -46.124
1398.4000, -46.106
1398.6000, -46.183
1398.8000, -46.144
1399.0000, -46.140
1399.2000, -46.493
1399.4000, -46.433
1399.6000, -46.760
1399.8000, -46.752
1400.0000, -46.796
1400.2000, -47.039
1400.4000, -47.294
1400.6000, -47.333
1400.8000, -47.490
1401.0000, -47.547
1401.2000, -47.755
1401.4000, -47.709
1401.6000, -47.876
1401.8000, -48.043
1402.0000, -48.144
1402.2000, -48.255
1402.4000, -48.325
1402.6000, -48.566
1402.8000, -48.857
1403.0000, -49.088
1403.2000, -49.191
1403.4000, -49.393
1403.6000, -49.551
1403.8000, -49.744
1404.0000, -49.804
1404.2000, -50.202
1404.4000, -50.406
1404.6000, -50.592
1404.8000, -51.123
1405.0000, -51.259
1405.2000, -51.500
1405.4000, -51.804
1405.6000, -51.747
1405.8000, -51.984
1406.0000, -52.293
1406.2000, -52.592
1406.4000, -53.051
1406.6000, -53.457
1406.8000, -53.927
1407.0000, -54.316
1407.2000, -55.021
1407.4000, -55.328
1407.6000, -55.750
1407.8000, -56.244
1408.0000, -56.744
1408.2000, -57.337
1408.4000, -57.995
1408.6000, -58.369
1408.8000, -59.062
1409.0000, -59.967
1409.2000, -60.607
1409.4000, -61.469
1409.6000, -62.078
1409.8000, -62.313
1410.0000, -62.663
1410.2000, -62.721
1410.4000, -62.717
1410.6000, -62.276
1410.8000, -61.923
1411.0000, -61.391
1411.2000, -60.711
1411.4000, -60.137
1411.6000, -59.384
1411.8000, -58.502
1412.0000, -58.115
1412.2000, -57.608
1412.4000, -56.847
1412.6000, -56.226
1412.8000, -55.506
1413.0000, -54.942
1413.2000, -54.568
1413.4000, -54.000
1413.6000, -53.586
1413.8000, -53.395
1414.0000, -52.799
1414.2000, -52.468
1414.4000, -52.176
1414.6000, -51.665
1414.8000, -51.372
1415.0000, -50.963
1415.2000, -50.643
1415.4000, -50.559
1415.6000, -50.146
1415.8000, -49.812
1416.0000, -49.603
1416.2000, -49.409
1416.4000, -49.069
1416.6000, -48.794
1416.8000, -48.652
1417.0000, -48.384
1417.2000, -48.444
1417.4000, -47.979
1417.6000, -47.783
1417.8000, -47.497
1418.0000, -47.247
1418.2000, -47.129
1418.4000, -46.896
1418.6000, -46.758
1418.8000, -46.483
1419.0000, -46.446
1419.2000, -46.242
1419.4000, -46.074
1419.6000, -45.818
1419.8000, -45.702
1420.0000, -45.538
1420.2000, -45.470
1420.4000, -45.261
1420.6000, -45.142
1420.8000, -45.033
1421.0000, -44.797
1421.2000, -44.877
1421.4000, -44.702
1421.6000, -44.734
1421.8000, -44.570
1422.0000, -44.528
1422.2000, -44.462
1422.4000, -44.340
1422.6000, -44.323
1422.8000, -44.332
1423.0000, -44.213
1423.2000, -44.124
1423.4000, -44.071
1423.6000, -44.147
1423.8000, -44.080
1424.0000, -43.916
1424.2000, -43.854
1424.4000, -43.883
1424.6000, -43.731
1424.8000, -43.737
1425.0000, -43.649
1425.2000, -43.616
1425.4000, -43.572
1425.6000, -43.525
1425.8000, -43.381
1426.0000, -43.260
1426.2000, -43.333
1426.4000, -43.234
1426.6000, -43.259
1426.8000, -43.161
1427.0000, -43.241
1427.2000, -43.129
1427.4000, -43.132
1427.6000, -43.059
1427.8000, -43.113
1428.0000, -43.137
1428.2000, -43.145
1428.4000, -43.187
1428.6000, -43.171
1428.8000, -43.188
1429.0000, -43.225
1429.2000, -43.279
1429.4000, -43.359
1429.6000, -43.352
1429.8000, -43.534
1430.0000, -43.537
1430.2000, -43.731
1430.4000, -43.642
1430.6000, -43.735
1430.8000, -43.756
1431.0000, -43.796
1431.2000, -43.766
1431.4000, -43.965
1431.6000, -44.017
1431.8000, -44.048
1432.0000, -44.123
1432.2000, -44.223
1432.4000, -44.318
1432.6000, -44.258
1432.8000, -44.364
1433.0000, -44.374
1433.2000, -44.487
1433.4000, -44.556
1433.6000, -44.519
1433.8000, -44.717
1434.0000, -44.744
1434.2000, -44.936
1434.4000, -44.957
1434.6000, -45.080
1434.8000, -45.200
1435.0000, -45.301
1435.2000, -45.348
1435.4000, -45.713
1435.6000, -45.738
1435.8000, -46.117
1436.0000, -46.115
1436.2000, -46.316
1436.4000, -46.537
1436.6000, -46.687
1436.8000, -46.941
1437.0000, -47.189
1437.2000, -47.363
1437.4000, -47.830
1437.6000, -48.125
1437.8000, -48.182
1438.0000, -48.561
1438.2000, -48.730
1438.4000, -48.936
1438.6000, -49.345
1438.8000, -49.715
1439.0000, -49.898
1439.2000, -50.342
1439.4000, -50.518
1439.6000, -51.029
1439.8000, -51.524
1440.0000, -51.803
1440.2000, -52.369
1440.4000, -52.784
1440.6000, -53.159
1440.8000, -53.923
1441.0000, -54.361
1441.2000, -54.989
1441.4000, -55.599
1441.6000, -55.941
1441.8000, -56.779
1442.0000, -57.246
1442.2000, -57.790
1442.4000, -58.609
1442.6000, -58.819
1442.8000, -59.207
1443.0000, -59.560
1443.2000, -59.525
1443.4000, -59.289
1443.6000, -58.898
1443.8000, -58.632
1444.0000, -57.902
1444.2000, -57.293
1444.4000, -56.842
1444.6000, -55.933
1444.8000, -55.492
1445.0000, -54.765
1445.2000, -54.115
1445.4000, -53.746
1445.6000, -53.026
1445.8000, -52.398
1446.0000, -52.076
1446.2000, -51.434
1446.4000, -50.849
1446.6000, -50.467
1446.8000, -50.005
1447.0000, -49.670
1447.2000, -49.237
1447.4000, -48.748
1447.6000, -48.482
1447.8000, -47.921
1448.0000, -47.655
1448.2000, -47.371
1448.4000, -46.973
1448.6000, -46.799
1448.8000, -46.361
1449.0000, -46.061
1449.2000, -45.961
1449.4000, -45.673
1449.6000, -45.377
1449.8000, -44.975
1450.0000, -44.864
1450.2000, -44.720
1450.4000, -44.523
1450.6000, -44.296
1450.8000, -44.096
1451.0000, -43.878
1451.2000, -43.715
1451.4000, -43.494
1451.6000, -43.386
1451.8000, -43.112
1452.0000, -43.018
1452.2000, -42.854
1452.4000, -42.710
1452.6000, -42.634
1452.8000, -42.264
1453.0000, -42.224
1453.2000, -41.975
1453.4000, -41.965
1453.6000, -41.884
1453.8000, -41.586
1454.0000, -41.577
1454.2000, -41.373
1454.4000, -41.289
1454.6000, -41.129
1454.8000, -41.030
1455.0000, -41.018
1455.2000, -40.891
1455.4000, -40.665
1455.6000, -40.726
1455.8000, -40.349
1456.0000, -40.328
1456.2000, -40.245
1456.4000, -40.210
1456.6000, -40.032
1456.8000, -40.067
1457.0000, -39.879
1457.2000, -39.933
1457.4000, -39.775
1457.6000, -39.831
1457.8000, -39.701
1458.0000, -39.676
1458.2000, -39.516
1458.4000, -39.529
1458.6000, -39.634
1458.8000, -39.542
1459.0000, -39.512
1459.2000, -39.545
1459.4000, -39.377
1459.6000, -39.474
1459.8000, -39.401
1460.0000, -39.474
1460.2000, -39.349
1460.4000, -39.368
1460.6000, -39.302
1460.8000, -39.268
1461.0000, -39.362
1461.2000, -39.328
1461.4000, -39.311
1461.6000, -39.258
1461.8000, -39.182
1462.0000, -39.081
1462.2000, -39.294
1462.4000, -39.210
1462.6000, -39.223
1462.8000, -39.236
1463.0000, -39.325
1463.2000, -39.376
1463.4000, -39.287
1463.6000, -39.343
1463.8000, -39.377
1464.0000, -39.381
1464.2000, -39.383
1464.4000, -39.478
1464.6000, -39.481
1464.8000, -39.655
1465.0000, -39.732
1465.2000, -39.778
1465.4000, -39.781
1465.6000, -39.944
1465.8000, -39.999
1466.0000, -40.140
1466.2000, -40.139
1466.4000, -40.214
1466.6000, -40.437
1466.8000, -40.595
1467.0000, -40.634
1467.2000, -40.641
1467.4000, -41.015
1467.6000, -41.074
1467.8000, -41.178
1468.0000, -41.230
1468.2000, -41.454
1468.4000, -41.540
1468.6000, -41.555
1468.8000, -41.852
1469.0000, -42.019
1469.2000, -42.057
1469.4000, -42.268
1469.6000, -42.475
1469.8000, -42.724
1470.0000, -42.803
1470.2000, -42.877
1470.4000, -43.143
1470.6000, -43.423
1470.8000, -43.571
1471.0000, -43.776
1471.2000, -44.088
1471.4000, -44.331
1471.6000, -44.524
1471.8000, -44.693
1472.0000, -45.063
1472.2000, -45.311
1472.4000, -45.609
1472.6000, -45.969
1472.8000, -46.242
1473.0000, -46.528
1473.2000, -46.817
1473.4000, -47.148
1473.6000, -47.653
1473.8000, -48.126
1474.0000, -48.361
1474.2000, -48.839
1474.4000, -49.236
1474.6000, -49.802
1474.8000, -50.316
1475.0000, -50.686
1475.2000, -51.292
1475.4000, -51.759
1475.6000, -52.416
1475.8000, -53.112
1476.0000, -53.631
1476.2000, -54.275
1476.4000, -55.043
1476.6000, -55.419
1476.8000, -56.202
1477.0000, -56.681
1477.2000, -57.095
1477.4000, -57.449
1477.6000, -57.490
1477.8000, -57.452
1478.0000, -57.247
1478.2000, -56.823
1478.4000, -56.306
1478.6000, -55.807
1478.8000, -55.276
1479.0000, -54.553
1479.2000, -54.244
1479.4000, -53.466
1479.6000, -52.933
1479.8000, -52.414
1480.0000, -51.603
1480.2000, -51.370
1480.4000, -50.628
1480.6000, -50.250
1480.8000, -49.985
1481.0000, -49.363
1481.2000, -49.058
1481.4000, -48.641
1481.6000, -48.288
1481.8000, -48.005
1482.0000, -47.561
1482.2000, -47.003
1482.4000, -47.006
1482.6000, -46.671
1482.8000, -46.443
1483.0000, -46.135
1483.2000, -45.809
1483.4000, -45.710
1483.6000, -45.328
1483.8000, -45.214
1484.0000, -44.993
1484.2000, -44.714
1484.4000, -44.621
1484.6000, -44.448
1484.8000, -44.086
1485.0000, -43.941
1485.2000, -43.793
1485.4000, -43.665
1485.6000, -43.528
1485.8000, -43.189
1486.0000, -43.090
1486.2000, -43.080
1486.4000, -42.892
1486.6000, -42.721
1486.8000, -42.600
1487.0000, -42.352
1487.2000, -42.238
1487.4000, -42.151
1487.6000, -42.059
1487.8000, -42.015
1488.0000, -41.907
1488.2000, -41.712
1488.4000, -41.692
1488.6000, -41.684
1488.8000, -41.573
1489.0000, -41.421
1489.2000, -41.392
1489.4000, -41.219
1489.6000, -41.217
1489.8000, -41.236
1490.0000, -41.121
1490.2000, -41.126
1490.4000, -41.040
1490.6000, -41.027
1490.8000, -40.840
1491.0000, -40.970
1491.2000, -40.715
1491.4000, -40.795
1491.6000, -40.616
1491.8000, -40.692
1492.0000, -40.548
1492.2000, -40.603
1492.4000, -40.560
1492.6000, -40.377
1492.8000, -40.357
1493.0000, -40.393
1493.2000, -40.269
1493.4000, -40.371
1493.6000, -40.318
1493.8000, -40.328
1494.0000, -40.407
1494.2000, -40.260
1494.4000, -40.354
1494.6000, -40.341
1494.8000, -40.374
1495.0000, -40.233
1495.2000, -40.300
1495.4000, -40.367
1495.6000, -40.185
1495.8000, -40.331
1496.0000, -40.369
1496.2000, -40.344
1496.4000, -40.291
1496.6000, -40.372
1496.8000, -40.355
1497.0000, -40.522
1497.2000, -40.442
1497.4000, -40.507
1497.6000, -40.549
1497.8000, -40.573
1498.0000, -40.595
1498.2000, -40.811
1498.4000, -40.586
1498.6000, -40.690
1498.8000, -40.850
1499.0000, -40.770
1499.2000, -40.951
1499.4000, -41.039
1499.6000, -40.960
1499.8000, -41.038
1500.0000, -41.111
1500.2000, -41.207
1500.4000, -41.290
1500.6000, -41.271
1500.8000, -41.422
1501.0000, -41.526
1501.2000, -41.562
1501.4000, -41.631
1501.6000, -41.720
1501.8000, -41.782
1502.0000, -41.783
1502.2000, -41.920
1502.4000, -42.074
1502.6000, -42.155
1502.8000, -42.310
1503.0000, -42.350
1503.2000, -42.476
1503.4000, -42.569
1503.6000, -42.654
1503.8000, -42.874
1504.0000, -43.129
1504.2000, -43.084
1504.4000, -43.377
1504.6000, -43.434
1504.8000, -43.675
1505.0000, -43.739
1505.2000, -43.856
1505.4000, -44.137
1505.6000, -44.247
1505.8000, -44.533
1506.0000, -44.691
1506.2000, -44.926
1506.4000, -45.013
1506.6000, -45.139
1506.8000, -45.437
1507.0000, -45.765
1507.2000, -45.895
1507.4000, -46.184
1507.6000, -46.423
1507.8000, -46.692
1508.0000, -46.954
1508.2000, -47.146
1508.4000, -47.485
1508.6000, -47.716
1508.8000, -48.012
1509.0000, -48.421
1509.2000, -48.608
1509.4000, -49.112
1509.6000, -49.396
1509.8000, -49.703
1510.0000, -50.208
1510.2000, -50.433
1510.4000, -51.028
1510.6000, -51.263
1510.8000, -51.845
1511.0000, -52.326
1511.2000, -52.678
1511.4000, -53.356
1511.6000, -53.806
1511.8000, -54.489
1512.0000, -55.068
1512.2000, -55.538
1512.4000, -56.279
1512.6000, -56.758
1512.8000, -57.523
1513.0000, -58.167
1513.2000, -58.462
1513.4000, -58.926
1513.6000, -59.050
1513.8000, -59.182
1514.0000, -59.219
1514.2000, -58.886
1514.4000, -58.363
1514.6000, -58.019
1514.8000, -57.534
1515.0000, -56.793
1515.2000, -56.352
1515.4000, -55.529
1515.6000, -55.074
1515.8000, -54.586
1516.0000, -53.912
1516.2000, -53.445
1516.4000, -52.864
1516.6000, -52.506
1516.8000, -52.087
1517.0000, -51.422
1517.2000, -51.238
1517.4000, -50.763
1517.6000, -50.328
1517.8000, -49.936
1518.0000, -49.666
1518.2000, -49.455
1518.4000, -48.996
1518.6000, -48.744
1518.8000, -48.498
1519.0000, -48.075
1519.2000, -47.952
1519.4000, -47.659
1519.6000, -47.183
1519.8000, -47.068
1520.0000, -46.802
1520.2000, -46.600
1520.4000, -46.346
1520.6000, -46.043
1520.8000, -45.873
1521.0000, -45.737
1521.2000, -45.613
1521.4000, -45.418
1521.6000, -45.385
1521.8000, -45.051
1522.0000, -45.022
1522.2000, -44.719
1522.4000, -44.567
1522.6000, -44.346
1522.8000, -44.309
1523.0000, -44.286
1523.2000, -43.828
1523.4000, -43.943
1523.6000, -43.763
1523.8000, -43.552
1524.0000, -43.552
1524.2000, -43.400
1524.4000, -43.244
1524.6000, -43.091
1524.8000, -43.137
1525.0000, -42.890
1525.2000, -42.910
1525.4000, -42.815
1525.6000, -42.691
1525.8000, -42.672
1526.0000, -42.618
1526.2000, -42.332
1526.4000, -42.392
1526.6000, -42.328
1526.8000, -42.290
1527.0000, -42.193
1527.2000, -42.099
1527.4000, -42.105
1527.6000, -42.011
1527.8000, -41.855
1528.0000, -41.910
1528.2000, -41.874
1528.4000, -41.768
1528.6000, -41.784
1528.8000, -41.703
1529.0000, -41.768
1529.2000, -41.696
1529.4000, -41.663
1529.6000, -41.709
1529.8000, -41.604
1530.0000, -41.580
1530.2000, -41.620
1530.4000, -41.528
1530.6000, -41.509
1530.8000, -41.396
1531.0000, -41.467
1531.2000, -41.417
1531.4000, -41.359
1531.6000, -41.318
1531.8000, -41.455
1532.0000, -41.354
1532.2000, -41.353
1532.4000, -41.485
1532.6000, -41.460
1532.8000, -41.391
1533.0000, -41.351
1533.2000, -41.396
1533.4000, -41.427
1533.6000, -41.395
1533.8000, -41.525
1534.0000, -41.410
1534.2000, -41.555
1534.4000, -41.418
1534.6000, -41.393
1534.8000, -41.574
1535.0000, -41.658
1535.2000, -41.584
1535.4000, -41.696
1535.6000, -41.612
1535.8000, -41.669
1536.0000, -41.576
1536.2000, -41.854
1536.4000, -41.821
1536.6000, -41.892
1536.8000, -41.897
1537.0000, -42.062
1537.2000, -42.040
1537.4000, -42.079
1537.6000, -42.192
1537.8000, -42.251
1538.0000, -42.318
1538.2000, -42.453
1538.4000, -42.555
1538.6000, -42.481
1538.8000, -42.652
1539.0000, -42.659
1539.2000, -42.870
1539.4000, -42.990
1539.6000, -42.974
1539.8000, -43.006
1540.0000, -43.147
1540.2000, -43.178
1540.4000, -43.433
1540.6000, -43.554
1540.8000, -43.513
1541.0000, -43.708
1541.2000, -43.665
1541.4000, -43.911
1541.6000, -43.992
1541.8000, -44.232
1542.0000, -44.469
1542.2000, -44.543
1542.4000, -44.591
1542.6000, -44.802
1542.8000, -44.853
1543.0000, -45.134
1543.2000, -45.234
1543.4000, -45.371
1543.6000, -45.546
1543.8000, -45.620
1544.0000, -46.043
1544.2000, -46.254
1544.4000, -46.499
1544.6000, -46.556
1544.8000, -46.741
1545.0000, -46.973
1545.2000, -47.217
1545.4000, -47.547
1545.6000, -47.568
1545.8000, -48.019
1546.0000, -48.268
1546.2000, -48.369
1546.4000, -48.668
1546.6000, -48.860
1546.8000, -49.361
1547.0000, -49.675
1547.2000, -49.897
1547.4000, -50.329
1547.6000, -50.677
1547.8000, -51.001
1548.0000, -51.258
1548.2000, -51.838
1548.4000, -52.115
1548.6000, -52.568
1548.8000, -52.923
1549.0000, -53.340
1549.2000, -54.048
1549.4000, -54.450
1549.6000, -54.997
1549.8000, -55.710
1550.0000, -56.236
1550.2000, -56.909
1550.4000, -57.169
1550.6000, -57.887
1550.8000, -58.320
1551.0000, -58.782
1551.2000, -59.233
1551.4000, -59.550
1551.6000, -59.813
1551.8000, -59.907
1552.0000, -59.808
1552.2000, -59.520
1552.4000, -59.267
1552.6000, -58.687
1552.8000, -58.437
1553.0000, -57.654
1553.2000, -57.337
1553.4000, -56.650
1553.6000, -55.911
1553.8000, -55.575
1554.0000, -55.002
1554.2000, -54.649
1554.4000, -53.995
1554.6000, -53.669
1554.8000, -53.284
1555.0000, -52.716
1555.2000, -52.400
1555.4000, -51.896
1555.6000, -51.620
1555.8000, -51.260
1556.0000, -50.858
1556.2000, -50.636
1556.4000, -50.272
1556.6000, -50.043
1556.8000, -49.484
1557.0000, -49.377
1557.2000, -49.036
1557.4000, -48.808
1557.6000, -48.441
1557.8000, -48.407
1558.0000, -48.168
1558.2000, -47.818
1558.4000, -47.559
1558.6000, -47.498
1558.8000, -46.990
1559.0000, -46.993
1559.2000, -46.775
1559.4000, -46.723
1559.6000, -46.435
1559.8000, -46.354
1560.0000, -46.034
1560.2000, -46.008
1560.4000, -45.790
1560.6000, -45.703
1560.8000, -45.693
1561.0000, -45.476
1561.2000, -45.226
1561.4000, -45.189
1561.6000, -44.984
1561.8000, -44.887
1562.0000, -44.724
1562.2000, -44.865
1562.4000, -44.649
1562.6000, -44.421
1562.8000, -44.465
1563.0000, -44.278
1563.2000, -44.316
1563.4000, -44.107
1563.6000, -44.019
1563.8000, -44.076
1564.0000, -43.719
1564.2000, -43.805
1564.4000, -43.641
1564.6000, -43.673
1564.8000, -43.553
1565.0000, -43.641
1565.2000, -43.384
1565.4000, -43.282
1565.6000, -43.269
1565.8000, -43.194
1566.0000, -43.117
1566.2000, -43.067
1566.4000, -43.087
1566.6000, -43.077
1566.8000, -43.000
1567.0000, -42.978
1567.2000, -42.719
1567.4000, -42.872
1567.6000, -42.702
1567.8000, -42.805
1568.0000, -42.673
1568.2000, -42.716
1568.4000, -42.699
1568.6000, -42.597
1568.8000, -42.588
1569.0000, -42.525
1569.2000, -42.515
1569.4000, -42.474
1569.6000, -42.593
1569.8000, -42.551
1570.0000, -42.358
1570.2000, -42.675
1570.4000, -42.518
1570.6000, -42.399
1570.8000, -42.476
1571.0000, -42.420
1571.2000, -42.566
1571.4000, -42.589
1571.6000, -42.498
1571.8000, -42.497
1572.0000, -42.554
1572.2000, -42.604
1572.4000, -42.578
1572.6000, -42.564
1572.8000, -42.756
1573.0000, -42.801
1573.2000, -42.778
1573.4000, -42.760
1573.6000, -42.707
1573.8000, -42.825
1574.0000, -42.900
1574.2000, -42.770
1574.4000, -42.835
1574.6000, -42.936
1574.8000, -43.017
1575.0000, -43.058
1575.2000, -42.984
1575.4000, -43.017
1575.6000, -43.102
1575.8000, -43.310
1576.0000, -43.304
1576.2000, -43.185
1576.4000, -43.356
1576.6000, -43.460
1576.8000, -43.542
1577.0000, -43.488
1577.2000, -43.673
1577.4000, -43.789
1577.6000, -43.718
1577.8000, -43.819
1578.0000, -43.991
1578.2000, -44.051
1578.4000, -44.093
1578.6000, -44.189
1578.8000, -44.240
1579.0000, -44.326
1579.2000, -44.486
1579.4000, -44.617
1579.6000, -44.629
1579.8000, -44.763
1580.0000, -44.957
1580.2000, -44.945
1580.4000, -45.186
1580.6000, -45.080
1580.8000, -45.336
1581.0000, -45.592
1581.2000, -45.583
1581.4000, -45.773
1581.6000, -45.836
1581.8000, -45.976
1582.0000, -46.095
1582.2000, -46.336
1582.4000, -46.409
1582.6000, -46.734
1582.8000, -46.805
1583.0000, -47.030
1583.2000, -47.070
1583.4000, -47.287
1583.6000, -47.477
1583.8000, -47.583
1584.0000, -47.842
1584.2000, -48.064
1584.4000, -48.358
1584.6000, -48.271
1584.8000, -48.844
1585.0000, -48.920
1585.2000, -49.105
1585.4000, -49.355
1585.6000, -49.738
1585.8000, -49.832
1586.0000, -50.051
1586.2000, -50.351
1586.4000, -50.606
1586.6000, -51.084
1586.8000, -51.375
1587.0000, -51.681
1587.2000, -52.063
1587.4000, -52.188
1587.6000, -52.676
1587.8000, -53.035
1588.0000, -53.544
1588.2000, -53.925
1588.4000, -54.264
1588.6000, -54.967
1588.8000, -55.257
1589.0000, -55.621
1589.2000, -56.147
1589.4000, -56.854
1589.6000, -57.125
1589.8000, -57.492
1590.0000, -58.204
1590.2000, -58.680
1590.4000, -59.205
1590.6000, -59.853
1590.8000, -60.381
1591.0000, -60.765
1591.2000, -61.261
1591.4000, -61.345
1591.6000, -61.713
1591.8000, -61.571
1592.0000, -61.342
1592.2000, -61.240
1592.4000, -60.896
1592.6000, -60.506
1592.8000, -60.078
1593.0000, -59.464
1593.2000, -59.198
1593.4000, -58.262
1593.6000, -58.102
1593.8000, -57.447
1594.0000, -56.879
1594.2000, -56.478
1594.4000, -56.125
1594.6000, -55.655
1594.8000, -55.187
1595.0000, -54.709
1595.2000, -54.316
1595.4000, -54.167
1595.6000, -53.405
1595.8000, -53.248
1596.0000, -52.922
1596.2000, -52.545
1596.4000, -52.066
1596.6000, -52.087
1596.8000, -51.837
1597.0000, -51.480
1597.2000, -51.142
1597.4000, -50.711
1597.6000, -50.743
1597.8000, -50.427
1598.0000, -50.204
1598.2000, -49.922
1598.4000, -49.704
1598.6000, -49.611
1598.8000, -49.255
1599.0000, -49.101
1599.2000, -48.907
1599.4000, -48.901
1599.6000, -48.653
1599.8000, -48.482
1600.0000, -48.258
1600.2000, -48.140
1600.4000, -47.874
1600.6000, -47.855
1600.8000, -47.711
1601.0000, -47.587
1601.2000, -47.455
1601.4000, -47.310
1601.6000, -47.187
1601.8000, -47.081
1602.0000, -47.000
1602.2000, -46.772
1602.4000, -46.698
1602.6000, -46.517
1602.8000, -46.643
1603.0000, -46.355
1603.2000, -46.322
1603.4000, -46.290
1603.6000, -46.194
1603.8000, -46.225
1604.0000, -46.066
1604.2000, -46.082
1604.4000, -45.919
1604.6000, -45.919
1604.8000, -45.810
1605.0000, -45.942
1605.2000, -45.711
1605.4000, -45.586
1605.6000, -45.563
1605.8000, -45.724
1606.0000, -45.578
1606.2000, -45.315
1606.4000, -45.465
1606.6000, -45.349
1606.8000, -45.376
1607.0000, -45.405
1607.2000, -45.324
1607.4000, -45.233
1607.6000, -45.353
1607.8000, -45.216
1608.0000, -45.283
1608.2000, -45.247
1608.4000, -45.364
1608.6000, -45.389
1608.8000, -45.224
1609.0000, -45.364
1609.2000, -45.280
1609.4000, -45.357
1609.6000, -45.500
1609.8000, -45.623
1610.0000, -45.388
1610.2000, -45.508
1610.4000, -45.442
1610.6000, -45.476
1610.8000, -45.237
1611.0000, -45.420
1611.2000, -45.373
1611.4000, -45.498
1611.6000, -45.247
1611.8000, -45.441
1612.0000, -45.228
1612.2000, -45.384
1612.4000, -45.215
1612.6000, -45.153
1612.8000, -45.186
1613.0000, -45.202
1613.2000, -45.152
1613.4000, -45.147
1613.6000, -45.252
1613.8000, -45.251
1614.0000, -45.308
1614.2000, -45.284
1614.4000, -45.296
1614.6000, -45.491
1614.8000, -45.272
1615.0000, -45.601
1615.2000, -45.570
1615.4000, -45.421
1615.6000, -45.500
1615.8000, -45.477
1616.0000, -45.404
1616.2000, -45.593
1616.4000, -45.505
1616.6000, -45.686
1616.8000, -45.668
1617.0000, -45.730
1617.2000, -45.858
1617.4000, -45.994
1617.6000, -46.010
1617.8000, -46.042
1618.0000, -46.012
1618.2000, -46.152
1618.4000, -46.141
1618.6000, -46.236
1618.8000, -46.389
1619.0000, -46.510
1619.2000, -46.411
1619.4000, -46.606
1619.6000, -46.634
1619.8000, -46.964
1620.0000, -46.789
1620.2000, -46.949
1620.4000, -47.158
1620.6000, -47.359
1620.8000, -47.209
1621.0000, -47.413
1621.2000, -47.554
1621.4000, -47.504
1621.6000, -47.699
1621.8000, -47.808
1622.0000, -48.022
1622.2000, -48.069
1622.4000, -48.392
1622.6000, -48.467
1622.8000, -48.507
1623.0000, -48.603
1623.2000, -48.690
1623.4000, -48.947
1623.6000, -49.159
1623.8000, -49.200
1624.0000, -49.448
1624.2000, -49.680
1624.4000, -49.979
1624.6000, -49.997
1624.8000, -50.308
1625.0000, -50.436
1625.2000, -50.527
1625.4000, -50.689
1625.6000, -50.915
1625.8000, -51.151
1626.0000, -51.436
1626.2000, -51.744
1626.4000, -51.930
1626.6000, -51.989
1626.8000, -52.233
1627.0000, -52.441
1627.2000, -52.628
1627.4000, -52.859
1627.6000, -53.418
1627.8000, -53.635
1628.0000, -53.792
1628.2000, -54.162
1628.4000, -54.435
1628.6000, -55.028
1628.8000, -55.202
1629.0000, -55.532
1629.2000, -55.745
1629.4000, -56.402
1629.6000, -56.626
1629.8000, -57.157
1630.0000, -57.727
1630.2000, -58.249
1630.4000, -58.454
1630.6000, -59.020
1630.8000, -59.373
1631.0000, -60.016
1631.2000, -60.402
1631.4000, -60.880
1631.6000, -61.072
1631.8000, -61.843
1632.0000, -62.233
1632.2000, -62.856
1632.4000, -63.211
1632.6000, -63.941
1632.8000, -64.256
1633.0000, -64.708
1633.2000, -64.656
1633.4000, -65.334
1633.6000, -65.419
1633.8000, -65.640
1634.0000, -65.295
1634.2000, -64.994
1634.4000, -64.909
1634.6000, -64.495
1634.8000, -64.104
1635.0000, -63.520
1635.2000, -63.093
1635.4000, -62.541
1635.6000, -62.161
1635.8000, -61.695
1636.0000, -61.172
1636.2000, -60.893
1636.4000, -60.288
1636.6000, -59.799
1636.8000, -59.303
1637.0000, -59.017
1637.2000, -58.540
1637.4000, -58.374
1637.6000, -57.906
1637.8000, -57.638
1638.0000, -57.137
1638.2000, -57.002
1638.4000, -56.659
1638.6000, -56.305
1638.8000, -56.106
1639.0000, -56.061
1639.2000, -55.731
1639.4000, -55.513
1639.6000, -55.195
1639.8000, -55.039
1640.0000, -54.598
1640.2000, -54.503
1640.4000, -54.227
1640.6000, -54.148
1640.8000, -53.893
1641.0000, -53.733
1641.2000, -53.786
1641.4000, -53.489
1641.6000, -53.176
1641.8000, -53.224
1642.0000, -52.847
1642.2000, -52.985
1642.4000, -52.629
1642.6000, -52.477
1642.8000, -52.412
1643.0000, -52.175
1643.2000, -52.306
1643.4000, -52.101
1643.6000, -51.900
1643.8000, -51.936
1644.0000, -51.748
1644.2000, -51.710
1644.4000, -51.513
1644.6000, -51.471
1644.8000, -51.232
1645.0000, -51.180
1645.2000, -51.143
1645.4000, -51.143
1645.6000, -50.926
1645.8000, -50.775
1646.0000, -50.797
1646.2000, -50.732
1646.4000, -50.695
1646.6000, -50.600
1646.8000, -50.377
1647.0000, -50.471
1647.2000, -50.401
1647.4000, -50.420
1647.6000, -50.211
1647.8000, -50.264
1648.0000, -50.037
1648.2000, -49.962
1648.4000, -49.888
1648.6000, -49.894
1648.8000, -49.814
1649.0000, -49.893
1649.2000, -49.769
1649.4000, -49.846
1649.6000, -49.827
1649.8000, -49.753
1650.0000, -49.835
1650.2000, -49.620
1650.4000, -49.771
1650.6000, -49.727
1650.8000, -49.678
1651.0000, -49.470
1651.2000, -49.632
1651.4000, -49.538
1651.6000, -49.533
1651.8000, -49.565
1652.0000, -49.635
1652.2000, -49.489
1652.4000, -49.589
1652.6000, -49.612
1652.8000, -49.527
1653.0000, -49.719
1653.2000, -49.576
1653.4000, -49.525
1653.6000, -49.556
1653.8000, -49.397
1654.0000, -49.415
1654.2000, -49.387
1654.4000, -49.515
1654.6000, -49.526
1654.8000, -49.486
1655.0000, -49.549
1655.2000, -49.441
1655.4000, -49.535
1655.6000, -49.722
1655.8000, -49.624
1656.0000, -49.675
1656.2000, -49.760
1656.4000, -49.509
1656.6000, -49.694
1656.8000, -49.605
1657.0000, -49.754
1657.2000, -49.672
1657.4000, -49.752
1657.6000, -49.825
1657.8000, -49.895
1658.0000, -50.007
1658.2000, -50.141
1658.4000, -50.292
1658.6000, -50.115
1658.8000, -50.125
1659.0000, -50.189
1659.2000, -50.189
1659.4000, -50.372
1659.6000, -50.377
1659.8000, -50.284
1660.0000, -50.423
1660.2000, -50.561
1660.4000, -50.540
1660.6000, -50.531
1660.8000, -50.682
1661.0000, -50.720
1661.2000, -50.990
1661.4000, -50.898
1661.6000, -50.949
1661.8000, -51.360
1662.0000, -51.254
1662.2000, -51.275
1662.4000, -51.391
1662.6000, -51.403
1662.8000, -51.571
1663.0000, -51.637
1663.2000, -51.627
1663.4000, -51.769
1663.6000, -51.772
1663.8000, -52.109
1664.0000, -52.060
1664.2000, -52.175
1664.4000, -52.259
1664.6000, -52.451
1664.8000, -52.452
1665.0000, -52.545
1665.2000, -52.561
1665.4000, -52.671
1665.6000, -52.679
1665.8000, -52.932
1666.0000, -53.015
1666.2000, -53.102
1666.4000, -53.161
1666.6000, -53.301
1666.8000, -53.530
1667.0000, -53.666
1667.2000, -53.849
1667.4000, -53.941
1667.6000, -54.046
1667.8000, -54.212
1668.0000, -54.320
1668.2000, -54.644
1668.4000, -54.770
1668.6000, -54.812
1668.8000, -54.995
1669.0000, -55.137
1669.2000, -55.334
1669.4000, -55.661
1669.6000, -55.730
1669.8000, -56.156
1670.0000, -56.020
1670.2000, -56.110
1670.4000, -56.613
1670.6000, -56.832
1670.8000, -56.801
1671.0000, -57.130
1671.2000, -57.401
1671.4000, -57.674
1671.6000, -57.724
1671.8000, -58.079
1672.0000, -58.193
1672.2000, -58.597
1672.4000, -58.751
1672.6000, -58.979
1672.8000, -59.644
1673.0000, -59.764
1673.2000, -60.041
1673.4000, -59.941
1673.6000, -60.315
1673.8000, -60.339
1674.0000, -61.194
1674.2000, -61.303
1674.4000, -61.097
1674.6000, -62.687
1674.8000, -62.724
1675.0000, -62.402
1675.2000, -63.795
1675.4000, -64.233
1675.6000, -63.267
1675.8000, -65.257
1676.0000, -64.642
1676.2000, -64.015
1676.4000, -66.246
1676.6000, -65.545
1676.8000, -66.429
1677.0000, -66.835
1677.2000, -68.061
1677.4000, -68.008
1677.6000, -66.684
1677.8000, -68.394
1678.0000, -66.615
1678.2000, -67.226
1678.4000, -67.381
1678.6000, -67.296
1678.8000, -65.859
1679.0000, -66.263
1679.2000, -70.796
1679.4000, -65.627
1679.6000, -64.717
1679.8000, -69.491
1680.0000, -64.296
1680.2000, -66.477
1680.4000, -64.409
1680.6000, -64.514
1680.8000, -64.910
1681.0000, -63.594
1681.2000, -63.036
1681.4000, -63.512
1681.6000, -63.098
1681.8000, -62.166
1682.0000, -62.503
1682.2000, -61.923
1682.4000, -61.727
1682.6000, -62.142
1682.8000, -60.524
1683.0000, -60.378
1683.2000, -61.038
1683.4000, -60.262
1683.6000, -60.464
1683.8000, -60.414
1684.0000, -59.391
1684.2000, -59.840
1684.4000, -59.150
1684.6000, -59.173
1684.8000, -59.088
1685.0000, -59.033
1685.2000, -58.605
1685.4000, -58.081
1685.6000, -58.616
1685.8000, -57.952
1686.0000, -57.993
1686.2000, -58.117
1686.4000, -57.778
1686.6000, -57.101
1686.8000, -58.125
1687.0000, -57.615
1687.2000, -57.130
1687.4000, -56.785
1687.6000, -56.913
1687.8000, -57.084
1688.0000, -56.637
1688.2000, -56.618
1688.4000, -56.964
1688.6000, -57.010
1688.8000, -56.516
1689.0000, -56.443
1689.2000, -56.694
1689.4000, -55.988
1689.6000, -55.933
1689.8000, -56.189
1690.0000, -56.178
1690.2000, -55.802
1690.4000, -56.030
1690.6000, -55.930
1690.8000, -56.017
1691.0000, -55.618
1691.2000, -55.517
1691.4000, -55.539
1691.6000, -55.908
1691.8000, -54.835
1692.0000, -55.442
1692.2000, -55.757
1692.4000, -55.717
1692.6000, -55.308
1692.8000, -54.978
1693.0000, -54.509
1693.2000, -55.609
1693.4000, -54.882
1693.6000, -54.438
1693.8000, -54.881
1694.0000, -54.922
1694.2000, -55.131
1694.4000, -54.987
1694.6000, -55.005
1694.8000, -54.388
1695.0000, -55.161
1695.2000, -54.602
1695.4000, -54.615
1695.6000, -54.197
1695.8000, -54.735
1696.0000, -54.346
1696.2000, -55.061
1696.4000, -54.482
1696.6000, -54.704
1696.8000, -54.557
1697.0000, -54.586
1697.2000, -54.744
1697.4000, -54.899
1697.6000, -54.488
1697.8000, -54.766
1698.0000, -54.469
1698.2000, -54.502
1698.4000, -54.677
1698.6000, -54.861
1698.8000, -54.196
1699.0000, -54.890
1699.2000, -54.320
1699.4000, -55.361
1699.6000, -54.423
1699.8000, -54.642
1700.0000, -54.749
