70BCSV 	
// AQ6370B OPTICAL SPECTRUM ANALYZER //                 
25
"CTRWL",1300.000000
"SPAN", 800.000000
"START WL", 900.000000
"STOP WL",1700.000000
"WLFREQ", 0
"REFL",-17.2
"LSCL",10.0
"RESLN",0.500
"AVG",   1
"SMPLAUTO",      1
"SMPL",       8001
"SMPLINTVL",0.1000
"HIGH1"
"MEAS"
"LSUNT",0
"NMSKH","OFF"
"RESCOR",0
"RESPARM", 9740
"FREQPARM", 9740






"[TRACE DATA]"
 900.0000, -71.083
 900.1000, -74.497
 900.2000, -69.293
 900.3000, -71.484
 900.4000, -75.188
 900.5000, -73.279
 900.6000, -75.368
 900.7000,-210.000
 900.8000, -73.886
 900.9000, -70.789
 901.0000, -73.779
 901.1000, -72.563
 901.2000, -73.307
 901.3000, -73.899
 901.4000, -76.833
 901.5000, -73.692
 901.6000, -74.858
 901.7000, -72.008
 901.8000, -73.591
 901.9000, -73.126
 902.0000, -75.590
 902.1000, -80.079
 902.2000, -74.446
 902.3000, -71.016
 902.4000, -74.991
 902.5000, -75.713
 902.6000, -73.193
 902.7000, -73.377
 902.8000, -75.107
 902.9000, -71.873
 903.0000, -72.833
 903.1000, -72.680
 903.2000, -79.694
 903.3000, -73.666
 903.4000, -76.917
 903.5000, -72.329
 903.6000, -86.798
 903.7000, -74.148
 903.8000, -71.099
 903.9000, -71.723
 904.0000, -71.620
 904.1000, -75.488
 904.2000, -74.275
 904.3000, -71.964
 904.4000,-210.000
 904.5000,-210.000
 904.6000, -69.619
 904.7000, -72.391
 904.8000, -74.718
 904.9000,-210.000
 905.0000, -73.322
 905.1000, -68.899
 905.2000, -74.138
 905.3000, -76.228
 905.4000, -75.206
 905.5000, -74.371
 905.6000, -76.584
 905.7000, -79.361
 905.8000, -71.885
 905.9000, -73.660
 906.0000, -78.477
 906.1000, -73.653
 906.2000, -71.553
 906.3000, -72.860
 906.4000, -73.729
 906.5000, -73.856
 906.6000, -72.436
 906.7000, -75.602
 906.8000, -76.006
 906.9000, -77.278
 907.0000, -74.199
 907.1000, -74.200
 907.2000, -77.423
 907.3000, -77.344
 907.4000, -73.568
 907.5000, -74.998
 907.6000, -74.518
 907.7000, -72.029
 907.8000, -77.183
 907.9000, -83.119
 908.0000, -74.215
 908.1000, -75.181
 908.2000, -75.872
 908.3000, -71.354
 908.4000, -81.589
 908.5000, -79.451
 908.6000, -76.687
 908.7000, -72.490
 908.8000, -74.042
 908.9000, -80.196
 909.0000, -74.234
 909.1000, -75.681
 909.2000, -76.556
 909.3000, -73.506
 909.4000, -75.402
 909.5000, -72.719
 909.6000, -74.234
 909.7000, -74.054
 909.8000, -75.471
 909.9000, -76.401
 910.0000, -76.368
 910.1000, -75.968
 910.2000, -75.152
 910.3000, -72.996
 910.4000, -74.396
 910.5000, -72.140
 910.6000, -73.477
 910.7000,-210.000
 910.8000, -74.862
 910.9000, -75.053
 911.0000, -73.118
 911.1000, -75.845
 911.2000, -72.363
 911.3000, -75.596
 911.4000, -72.076
 911.5000, -76.541
 911.6000, -73.694
 911.7000,-210.000
 911.8000, -79.100
 911.9000, -80.814
 912.0000, -80.121
 912.1000, -74.746
 912.2000, -75.548
 912.3000, -70.402
 912.4000, -78.369
 912.5000, -72.673
 912.6000, -77.113
 912.7000,-210.000
 912.8000, -74.249
 912.9000, -77.512
 913.0000, -73.509
 913.1000,-210.000
 913.2000, -70.938
 913.3000,-210.000
 913.4000,-210.000
 913.5000, -74.964
 913.6000, -74.750
 913.7000, -81.063
 913.8000, -73.943
 913.9000, -71.846
 914.0000,-210.000
 914.1000,-210.000
 914.2000, -77.927
 914.3000, -72.323
 914.4000, -71.486
 914.5000, -75.254
 914.6000, -75.463
 914.7000,-210.000
 914.8000, -73.989
 914.9000, -73.803
 915.0000, -79.164
 915.1000, -89.892
 915.2000,-210.000
 915.3000, -71.191
 915.4000, -71.749
 915.5000, -76.040
 915.6000, -77.057
 915.7000, -74.841
 915.8000, -77.746
 915.9000, -77.145
 916.0000, -76.876
 916.1000, -87.041
 916.2000, -72.310
 916.3000,-210.000
 916.4000,-210.000
 916.5000, -77.278
 916.6000, -75.154
 916.7000, -77.229
 916.8000, -75.541
 916.9000, -74.353
 917.0000, -75.865
 917.1000, -75.351
 917.2000, -75.492
 917.3000, -75.527
 917.4000, -74.746
 917.5000, -77.275
 917.6000, -77.078
 917.7000, -77.372
 917.8000, -80.732
 917.9000, -75.121
 918.0000, -75.113
 918.1000,-210.000
 918.2000, -71.514
 918.3000, -81.061
 918.4000, -71.707
 918.5000, -78.362
 918.6000, -79.339
 918.7000, -74.147
 918.8000, -75.494
 918.9000,-210.000
 919.0000, -75.945
 919.1000, -77.551
 919.2000, -75.906
 919.3000, -74.091
 919.4000,-210.000
 919.5000, -79.466
 919.6000, -75.722
 919.7000, -76.833
 919.8000, -76.911
 919.9000, -76.373
 920.0000, -72.936
 920.1000,-210.000
 920.2000, -84.193
 920.3000, -73.690
 920.4000,-210.000
 920.5000, -76.283
 920.6000, -84.149
 920.7000, -75.242
 920.8000, -77.618
 920.9000, -77.317
 921.0000, -85.696
 921.1000, -74.903
 921.2000, -77.569
 921.3000, -79.287
 921.4000, -75.080
 921.5000, -75.001
 921.6000, -90.362
 921.7000, -74.341
 921.8000, -76.046
 921.9000, -77.067
 922.0000, -85.681
 922.1000, -77.145
 922.2000, -76.613
 922.3000, -76.814
 922.4000, -78.831
 922.5000, -76.526
 922.6000, -75.661
 922.7000, -74.203
 922.8000, -79.327
 922.9000, -75.985
 923.0000, -76.142
 923.1000, -78.269
 923.2000, -82.019
 923.3000, -75.609
 923.4000, -78.648
 923.5000, -76.483
 923.6000, -78.417
 923.7000, -76.985
 923.8000, -76.101
 923.9000, -77.851
 924.0000, -79.166
 924.1000, -76.672
 924.2000, -78.015
 924.3000, -77.238
 924.4000, -77.948
 924.5000, -74.577
 924.6000, -76.446
 924.7000, -79.587
 924.8000, -80.734
 924.9000, -74.130
 925.0000, -88.218
 925.1000, -78.791
 925.2000, -76.422
 925.3000, -84.186
 925.4000, -78.775
 925.5000, -76.289
 925.6000, -75.661
 925.7000, -75.255
 925.8000, -81.277
 925.9000, -79.439
 926.0000, -78.362
 926.1000, -76.667
 926.2000, -75.430
 926.3000, -75.045
 926.4000, -76.687
 926.5000, -79.673
 926.6000, -80.826
 926.7000, -76.967
 926.8000, -78.835
 926.9000, -79.970
 927.0000, -76.428
 927.1000, -74.755
 927.2000, -77.212
 927.3000, -79.882
 927.4000, -76.923
 927.5000, -76.317
 927.6000, -75.719
 927.7000, -78.563
 927.8000, -81.121
 927.9000, -78.060
 928.0000, -76.021
 928.1000, -77.525
 928.2000, -76.846
 928.3000, -77.384
 928.4000, -79.392
 928.5000, -81.328
 928.6000, -77.139
 928.7000, -83.024
 928.8000, -77.342
 928.9000, -77.133
 929.0000, -79.925
 929.1000, -77.921
 929.2000, -78.206
 929.3000, -76.218
 929.4000, -81.054
 929.5000, -87.065
 929.6000, -77.807
 929.7000, -79.615
 929.8000, -76.224
 929.9000, -80.952
 930.0000, -77.639
 930.1000, -80.593
 930.2000, -78.286
 930.3000, -77.179
 930.4000, -78.823
 930.5000, -81.777
 930.6000, -76.629
 930.7000, -78.065
 930.8000, -78.178
 930.9000, -77.199
 931.0000, -79.105
 931.1000, -78.344
 931.2000, -78.293
 931.3000, -78.168
 931.4000, -79.585
 931.5000, -76.125
 931.6000, -76.790
 931.7000, -81.354
 931.8000, -80.705
 931.9000, -79.744
 932.0000, -76.856
 932.1000, -77.138
 932.2000, -79.906
 932.3000, -78.381
 932.4000, -74.414
 932.5000, -78.327
 932.6000, -78.668
 932.7000, -97.580
 932.8000,-210.000
 932.9000, -77.238
 933.0000, -79.684
 933.1000, -77.024
 933.2000, -74.876
 933.3000, -75.470
 933.4000, -77.455
 933.5000, -90.515
 933.6000, -77.125
 933.7000, -82.860
 933.8000, -75.745
 933.9000, -75.261
 934.0000,-210.000
 934.1000, -85.231
 934.2000, -81.605
 934.3000, -75.200
 934.4000, -85.984
 934.5000, -79.642
 934.6000, -75.386
 934.7000, -81.409
 934.8000, -77.081
 934.9000, -77.026
 935.0000, -77.377
 935.1000, -78.538
 935.2000, -80.116
 935.3000, -80.452
 935.4000, -86.945
 935.5000, -84.149
 935.6000, -83.433
 935.7000, -73.954
 935.8000, -78.623
 935.9000, -80.298
 936.0000, -78.617
 936.1000, -77.172
 936.2000, -76.937
 936.3000,-210.000
 936.4000,-210.000
 936.5000, -78.549
 936.6000, -77.095
 936.7000, -98.458
 936.8000, -76.093
 936.9000, -76.515
 937.0000, -78.387
 937.1000, -80.163
 937.2000, -86.960
 937.3000, -78.546
 937.4000, -77.016
 937.5000,-210.000
 937.6000,-210.000
 937.7000, -80.464
 937.8000, -74.727
 937.9000, -75.192
 938.0000, -77.412
 938.1000, -82.938
 938.2000, -89.990
 938.3000, -81.463
 938.4000, -74.690
 938.5000, -78.180
 938.6000, -80.622
 938.7000, -76.280
 938.8000, -73.904
 938.9000,-210.000
 939.0000,-210.000
 939.1000, -78.147
 939.2000, -76.166
 939.3000, -79.969
 939.4000, -79.379
 939.5000,-210.000
 939.6000, -93.010
 939.7000, -75.116
 939.8000, -79.100
 939.9000, -78.643
 940.0000, -83.270
 940.1000, -77.201
 940.2000,-210.000
 940.3000, -79.478
 940.4000, -78.745
 940.5000,-210.000
 940.6000, -79.341
 940.7000, -79.255
 940.8000, -84.247
 940.9000, -80.737
 941.0000, -82.015
 941.1000, -77.748
 941.2000, -85.505
 941.3000, -77.955
 941.4000, -77.987
 941.5000, -76.534
 941.6000, -76.776
 941.7000, -76.741
 941.8000,-210.000
 941.9000, -78.654
 942.0000, -82.179
 942.1000, -80.779
 942.2000, -76.399
 942.3000, -78.693
 942.4000, -76.711
 942.5000, -79.941
 942.6000, -78.826
 942.7000, -78.701
 942.8000, -78.090
 942.9000, -81.365
 943.0000, -77.927
 943.1000, -76.473
 943.2000,-210.000
 943.3000, -78.358
 943.4000, -78.035
 943.5000, -78.990
 943.6000,-210.000
 943.7000, -76.838
 943.8000, -77.744
 943.9000, -77.255
 944.0000, -78.573
 944.1000, -80.111
 944.2000, -78.239
 944.3000, -77.989
 944.4000, -77.705
 944.5000, -77.991
 944.6000, -80.093
 944.7000, -81.145
 944.8000, -81.659
 944.9000, -77.347
 945.0000, -79.877
 945.1000, -77.953
 945.2000, -77.574
 945.3000, -79.110
 945.4000, -86.759
 945.5000,-210.000
 945.6000, -75.432
 945.7000, -79.026
 945.8000, -80.683
 945.9000, -76.593
 946.0000, -78.474
 946.1000, -77.226
 946.2000, -76.919
 946.3000, -78.810
 946.4000, -77.352
 946.5000, -77.940
 946.6000, -76.639
 946.7000, -77.096
 946.8000, -84.924
 946.9000, -80.743
 947.0000, -78.679
 947.1000, -81.011
 947.2000, -78.354
 947.3000, -77.413
 947.4000, -81.119
 947.5000,-105.336
 947.6000, -78.662
 947.7000, -79.895
 947.8000, -78.594
 947.9000, -78.709
 948.0000, -77.434
 948.1000, -83.298
 948.2000, -82.917
 948.3000, -79.159
 948.4000, -77.578
 948.5000, -77.146
 948.6000, -76.689
 948.7000, -80.702
 948.8000,-210.000
 948.9000, -84.862
 949.0000, -78.405
 949.1000, -78.617
 949.2000,-210.000
 949.3000, -92.184
 949.4000, -79.315
 949.5000, -80.624
 949.6000, -79.713
 949.7000, -80.861
 949.8000, -84.139
 949.9000, -77.580
 950.0000, -79.650
 950.1000, -82.581
 950.2000, -78.414
 950.3000, -85.506
 950.4000, -79.367
 950.5000, -85.792
 950.6000, -78.138
 950.7000, -80.229
 950.8000, -82.723
 950.9000, -79.529
 951.0000, -78.520
 951.1000, -81.272
 951.2000, -81.666
 951.3000, -82.588
 951.4000, -78.143
 951.5000, -79.115
 951.6000, -86.966
 951.7000, -79.704
 951.8000, -78.872
 951.9000, -85.285
 952.0000, -79.053
 952.1000, -78.596
 952.2000, -84.366
 952.3000, -76.974
 952.4000, -79.734
 952.5000, -83.452
 952.6000, -78.988
 952.7000, -81.222
 952.8000, -83.454
 952.9000, -80.088
 953.0000,-210.000
 953.1000, -82.379
 953.2000, -77.575
 953.3000, -84.410
 953.4000, -78.171
 953.5000, -79.194
 953.6000, -77.578
 953.7000, -79.111
 953.8000, -80.978
 953.9000, -80.826
 954.0000, -78.960
 954.1000, -81.169
 954.2000, -82.885
 954.3000, -80.079
 954.4000, -79.955
 954.5000, -77.687
 954.6000, -79.871
 954.7000, -82.460
 954.8000, -81.589
 954.9000, -79.493
 955.0000, -82.294
 955.1000, -79.063
 955.2000, -82.016
 955.3000, -80.831
 955.4000, -81.976
 955.5000, -82.497
 955.6000, -78.790
 955.7000, -80.267
 955.8000, -82.481
 955.9000, -77.462
 956.0000, -80.452
 956.1000, -92.101
 956.2000, -81.342
 956.3000, -81.727
 956.4000, -80.206
 956.5000, -77.832
 956.6000, -79.897
 956.7000, -75.769
 956.8000,-210.000
 956.9000, -85.566
 957.0000, -78.465
 957.1000, -87.002
 957.2000, -83.599
 957.3000, -79.153
 957.4000, -82.015
 957.5000, -81.117
 957.6000, -82.818
 957.7000, -80.083
 957.8000, -77.106
 957.9000, -83.174
 958.0000, -78.201
 958.1000, -80.083
 958.2000, -84.175
 958.3000, -80.454
 958.4000, -96.606
 958.5000, -78.523
 958.6000, -89.418
 958.7000, -77.156
 958.8000, -80.526
 958.9000, -78.759
 959.0000, -79.644
 959.1000, -82.985
 959.2000, -81.211
 959.3000,-210.000
 959.4000, -81.297
 959.5000, -80.003
 959.6000, -78.714
 959.7000, -78.611
 959.8000, -80.334
 959.9000, -83.720
 960.0000, -79.273
 960.1000, -79.602
 960.2000, -80.148
 960.3000, -77.562
 960.4000, -77.682
 960.5000, -79.083
 960.6000,-210.000
 960.7000, -81.536
 960.8000, -82.539
 960.9000, -81.258
 961.0000, -78.275
 961.1000, -80.314
 961.2000, -80.160
 961.3000, -82.321
 961.4000, -77.672
 961.5000, -83.574
 961.6000, -80.032
 961.7000, -82.736
 961.8000, -80.694
 961.9000, -78.581
 962.0000, -81.149
 962.1000, -81.006
 962.2000,-210.000
 962.3000, -79.482
 962.4000, -79.147
 962.5000, -78.485
 962.6000, -80.655
 962.7000, -79.844
 962.8000, -79.235
 962.9000, -83.443
 963.0000, -79.661
 963.1000, -79.024
 963.2000, -79.880
 963.3000, -83.307
 963.4000, -79.231
 963.5000, -82.128
 963.6000, -78.239
 963.7000, -80.464
 963.8000, -84.653
 963.9000, -82.946
 964.0000, -83.002
 964.1000, -82.310
 964.2000, -78.886
 964.3000, -83.438
 964.4000, -77.776
 964.5000, -79.899
 964.6000, -79.963
 964.7000, -82.274
 964.8000, -86.303
 964.9000, -80.322
 965.0000, -79.852
 965.1000, -78.097
 965.2000, -83.198
 965.3000, -77.357
 965.4000, -79.273
 965.5000,-210.000
 965.6000, -78.757
 965.7000, -83.325
 965.8000, -80.409
 965.9000, -82.513
 966.0000, -80.877
 966.1000, -76.542
 966.2000, -82.809
 966.3000, -81.329
 966.4000, -79.908
 966.5000, -81.316
 966.6000, -80.731
 966.7000, -77.298
 966.8000,-210.000
 966.9000, -83.312
 967.0000, -81.094
 967.1000, -81.637
 967.2000, -82.074
 967.3000, -82.269
 967.4000, -87.846
 967.5000, -77.437
 967.6000, -78.769
 967.7000, -78.714
 967.8000, -80.012
 967.9000, -86.070
 968.0000, -87.614
 968.1000, -79.866
 968.2000, -79.484
 968.3000, -80.165
 968.4000, -80.324
 968.5000, -78.576
 968.6000, -77.575
 968.7000, -81.879
 968.8000, -81.118
 968.9000, -80.494
 969.0000, -80.869
 969.1000, -78.919
 969.2000, -83.854
 969.3000, -83.761
 969.4000, -82.856
 969.5000, -78.083
 969.6000, -81.128
 969.7000, -82.848
 969.8000, -78.576
 969.9000, -77.361
 970.0000, -81.383
 970.1000, -81.745
 970.2000, -81.531
 970.3000, -80.285
 970.4000, -78.947
 970.5000, -81.914
 970.6000, -85.068
 970.7000, -82.444
 970.8000, -80.105
 970.9000, -81.331
 971.0000, -83.895
 971.1000, -77.575
 971.2000, -78.721
 971.3000, -80.581
 971.4000, -78.812
 971.5000, -83.437
 971.6000, -80.860
 971.7000, -78.870
 971.8000, -88.076
 971.9000, -79.043
 972.0000, -83.669
 972.1000, -80.044
 972.2000, -82.759
 972.3000, -83.388
 972.4000, -79.306
 972.5000, -79.821
 972.6000, -78.209
 972.7000, -80.022
 972.8000, -81.246
 972.9000, -80.362
 973.0000,-210.000
 973.1000, -79.140
 973.2000, -79.377
 973.3000, -78.795
 973.4000, -79.013
 973.5000, -84.960
 973.6000, -86.903
 973.7000, -82.380
 973.8000, -79.778
 973.9000, -80.141
 974.0000, -83.441
 974.1000, -79.499
 974.2000, -89.482
 974.3000, -80.484
 974.4000, -83.879
 974.5000, -80.147
 974.6000, -81.376
 974.7000, -78.356
 974.8000, -80.239
 974.9000, -79.838
 975.0000, -79.215
 975.1000, -81.808
 975.2000, -78.690
 975.3000, -81.355
 975.4000, -81.659
 975.5000, -85.900
 975.6000, -81.385
 975.7000, -80.178
 975.8000, -79.745
 975.9000, -81.957
 976.0000, -80.812
 976.1000, -81.289
 976.2000, -80.834
 976.3000, -77.667
 976.4000, -77.434
 976.5000,-210.000
 976.6000,-210.000
 976.7000, -80.693
 976.8000, -78.109
 976.9000, -80.152
 977.0000, -82.621
 977.1000, -80.563
 977.2000, -80.785
 977.3000, -79.692
 977.4000, -79.414
 977.5000, -88.644
 977.6000, -77.259
 977.7000, -80.461
 977.8000, -81.506
 977.9000, -80.593
 978.0000,-210.000
 978.1000, -78.527
 978.2000, -81.350
 978.3000, -87.844
 978.4000, -78.005
 978.5000, -75.689
 978.6000,-210.000
 978.7000,-210.000
 978.8000, -80.407
 978.9000, -80.839
 979.0000, -80.785
 979.1000, -79.045
 979.2000, -77.193
 979.3000, -82.121
 979.4000,-210.000
 979.5000, -80.152
 979.6000, -78.035
 979.7000, -83.699
 979.8000, -81.229
 979.9000,-210.000
 980.0000, -76.958
 980.1000, -80.846
 980.2000, -85.391
 980.3000,-210.000
 980.4000, -83.166
 980.5000, -79.046
 980.6000, -79.461
 980.7000, -80.581
 980.8000, -81.492
 980.9000, -80.333
 981.0000, -87.082
 981.1000, -77.599
 981.2000,-210.000
 981.3000, -80.249
 981.4000, -79.043
 981.5000, -80.631
 981.6000, -80.524
 981.7000, -81.810
 981.8000, -84.442
 981.9000, -79.599
 982.0000, -80.290
 982.1000, -80.200
 982.2000, -88.689
 982.3000, -79.717
 982.4000, -78.959
 982.5000, -80.076
 982.6000, -84.353
 982.7000, -81.375
 982.8000, -81.088
 982.9000, -80.059
 983.0000, -80.536
 983.1000, -80.072
 983.2000, -79.245
 983.3000, -80.819
 983.4000, -82.727
 983.5000, -82.640
 983.6000, -77.696
 983.7000, -86.295
 983.8000, -77.713
 983.9000, -79.219
 984.0000, -90.731
 984.1000, -83.404
 984.2000, -80.763
 984.3000, -85.184
 984.4000, -79.193
 984.5000, -85.345
 984.6000, -83.493
 984.7000, -82.493
 984.8000, -81.048
 984.9000, -84.341
 985.0000, -83.050
 985.1000, -79.792
 985.2000, -78.091
 985.3000, -80.001
 985.4000, -80.483
 985.5000, -79.118
 985.6000, -81.677
 985.7000, -82.681
 985.8000, -80.030
 985.9000, -82.152
 986.0000, -83.346
 986.1000, -85.501
 986.2000, -80.249
 986.3000, -80.509
 986.4000, -82.321
 986.5000, -81.851
 986.6000, -81.720
 986.7000, -83.847
 986.8000, -79.991
 986.9000, -83.237
 987.0000, -81.427
 987.1000, -81.764
 987.2000, -85.157
 987.3000, -79.412
 987.4000, -90.307
 987.5000, -81.038
 987.6000, -81.515
 987.7000, -80.130
 987.8000, -81.418
 987.9000, -79.595
 988.0000,-210.000
 988.1000, -80.889
 988.2000, -88.433
 988.3000, -81.766
 988.4000, -82.538
 988.5000, -82.297
 988.6000, -81.775
 988.7000, -81.420
 988.8000, -81.496
 988.9000, -80.903
 989.0000, -80.254
 989.1000, -83.412
 989.2000, -81.613
 989.3000, -80.722
 989.4000, -87.843
 989.5000, -79.475
 989.6000, -83.945
 989.7000, -82.649
 989.8000, -79.447
 989.9000, -79.735
 990.0000, -80.039
 990.1000, -83.228
 990.2000, -82.055
 990.3000, -78.813
 990.4000, -85.823
 990.5000, -83.744
 990.6000, -80.295
 990.7000, -85.381
 990.8000, -87.933
 990.9000, -81.942
 991.0000, -79.860
 991.1000, -84.604
 991.2000, -81.339
 991.3000, -80.102
 991.4000, -81.941
 991.5000, -83.151
 991.6000, -78.998
 991.7000, -80.548
 991.8000, -83.157
 991.9000, -82.253
 992.0000, -84.248
 992.1000, -80.782
 992.2000, -88.508
 992.3000, -82.541
 992.4000, -81.110
 992.5000, -80.958
 992.6000, -85.645
 992.7000, -79.966
 992.8000, -84.808
 992.9000, -79.779
 993.0000, -83.278
 993.1000, -82.193
 993.2000, -80.094
 993.3000, -80.768
 993.4000, -83.309
 993.5000, -80.624
 993.6000, -90.374
 993.7000, -82.430
 993.8000, -79.668
 993.9000, -80.777
 994.0000, -82.438
 994.1000, -81.958
 994.2000, -83.144
 994.3000, -81.623
 994.4000, -80.893
 994.5000, -79.951
 994.6000, -80.407
 994.7000, -81.773
 994.8000, -80.366
 994.9000, -82.223
 995.0000, -80.675
 995.1000, -78.616
 995.2000, -80.259
 995.3000, -83.166
 995.4000, -81.601
 995.5000,-210.000
 995.6000, -79.622
 995.7000, -80.650
 995.8000, -79.534
 995.9000, -81.444
 996.0000, -84.700
 996.1000, -81.669
 996.2000, -78.968
 996.3000, -81.460
 996.4000, -83.231
 996.5000, -82.462
 996.6000, -81.682
 996.7000, -80.581
 996.8000, -81.075
 996.9000, -80.914
 997.0000, -80.966
 997.1000, -83.266
 997.2000, -79.848
 997.3000, -82.734
 997.4000, -81.583
 997.5000, -82.987
 997.6000, -80.860
 997.7000, -82.283
 997.8000, -79.113
 997.9000, -83.840
 998.0000, -82.990
 998.1000, -80.766
 998.2000, -79.989
 998.3000, -80.878
 998.4000, -78.763
 998.5000, -81.888
 998.6000, -81.238
 998.7000, -88.690
 998.8000, -79.236
 998.9000, -83.897
 999.0000, -82.111
 999.1000, -81.773
 999.2000, -82.501
 999.3000, -78.306
 999.4000,-210.000
 999.5000, -77.380
 999.6000,-210.000
 999.7000, -79.422
 999.8000,-210.000
 999.9000, -83.241
1000.0000, -80.007
1000.1000, -78.996
1000.2000, -86.452
1000.3000, -81.300
1000.4000, -83.802
1000.5000, -83.150
1000.6000, -80.829
1000.7000, -87.961
1000.8000, -83.099
1000.9000, -80.198
1001.0000, -81.351
1001.1000, -82.863
1001.2000, -85.590
1001.3000, -83.060
1001.4000, -81.575
1001.5000, -79.993
1001.6000, -82.582
1001.7000, -83.690
1001.8000, -79.602
1001.9000, -80.924
1002.0000, -79.576
1002.1000, -79.758
1002.2000, -86.069
1002.3000, -91.646
1002.4000, -82.535
1002.5000, -82.515
1002.6000, -80.960
1002.7000,-210.000
1002.8000, -82.405
1002.9000, -87.369
1003.0000, -84.404
1003.1000, -78.726
1003.2000, -80.065
1003.3000, -83.176
1003.4000,-210.000
1003.5000, -79.269
1003.6000, -86.065
1003.7000, -84.802
1003.8000, -81.397
1003.9000, -78.148
1004.0000, -81.662
1004.1000,-210.000
1004.2000, -82.146
1004.3000, -81.168
1004.4000, -81.011
1004.5000, -83.197
1004.6000, -80.813
1004.7000, -81.726
1004.8000, -79.581
1004.9000, -90.958
1005.0000, -82.268
1005.1000, -84.976
1005.2000, -80.679
1005.3000, -83.638
1005.4000,-210.000
1005.5000, -76.923
1005.6000, -80.407
1005.7000, -81.948
1005.8000, -83.002
1005.9000,-100.106
1006.0000, -80.590
1006.1000, -80.042
1006.2000, -86.161
1006.3000, -80.298
1006.4000, -83.700
1006.5000, -80.342
1006.6000, -83.072
1006.7000, -82.306
1006.8000, -83.518
1006.9000, -81.561
1007.0000, -80.536
1007.1000, -80.122
1007.2000, -84.742
1007.3000, -82.785
1007.4000, -90.541
1007.5000, -81.964
1007.6000, -78.957
1007.7000,-210.000
1007.8000, -83.285
1007.9000, -90.276
1008.0000, -85.024
1008.1000, -81.177
1008.2000, -80.571
1008.3000, -83.239
1008.4000, -78.167
1008.5000, -87.236
1008.6000,-210.000
1008.7000, -81.818
1008.8000, -82.270
1008.9000, -84.393
1009.0000, -84.210
1009.1000, -82.617
1009.2000, -82.713
1009.3000, -83.246
1009.4000, -81.201
1009.5000, -80.350
1009.6000,-210.000
1009.7000, -80.672
1009.8000, -80.282
1009.9000, -83.192
1010.0000, -80.342
1010.1000, -81.292
1010.2000, -83.075
1010.3000, -81.317
1010.4000, -85.585
1010.5000, -85.781
1010.6000, -79.242
1010.7000, -80.627
1010.8000, -78.907
1010.9000,-210.000
1011.0000, -83.784
1011.1000, -81.467
1011.2000, -81.099
1011.3000, -82.250
1011.4000, -79.967
1011.5000, -81.338
1011.6000,-210.000
1011.7000, -84.685
1011.8000, -80.859
1011.9000, -86.513
1012.0000, -82.892
1012.1000, -81.609
1012.2000, -83.983
1012.3000, -83.996
1012.4000, -81.180
1012.5000, -84.049
1012.6000, -82.158
1012.7000, -80.040
1012.8000, -80.692
1012.9000, -81.558
1013.0000, -83.514
1013.1000, -84.538
1013.2000, -80.532
1013.3000, -78.424
1013.4000, -84.131
1013.5000, -82.210
1013.6000, -81.048
1013.7000, -82.339
1013.8000, -82.129
1013.9000, -80.853
1014.0000, -81.889
1014.1000, -81.050
1014.2000,-210.000
1014.3000, -79.622
1014.4000, -82.695
1014.5000, -81.616
1014.6000, -82.610
1014.7000, -81.975
1014.8000, -81.737
1014.9000, -88.529
1015.0000, -80.939
1015.1000, -83.299
1015.2000, -80.447
1015.3000, -81.693
1015.4000, -90.740
1015.5000, -80.777
1015.6000, -81.014
1015.7000, -84.357
1015.8000, -82.093
1015.9000, -81.588
1016.0000, -84.547
1016.1000, -80.592
1016.2000, -83.449
1016.3000, -84.573
1016.4000, -81.189
1016.5000, -84.800
1016.6000, -84.688
1016.7000, -81.001
1016.8000, -83.229
1016.9000, -80.975
1017.0000, -84.953
1017.1000, -79.454
1017.2000, -88.807
1017.3000, -80.661
1017.4000, -80.953
1017.5000, -84.975
1017.6000, -82.712
1017.7000, -84.862
1017.8000, -83.118
1017.9000, -83.863
1018.0000, -79.653
1018.1000, -87.788
1018.2000, -81.682
1018.3000, -81.584
1018.4000, -92.268
1018.5000, -82.337
1018.6000, -82.582
1018.7000, -81.228
1018.8000, -82.147
1018.9000, -84.493
1019.0000, -79.875
1019.1000, -83.926
1019.2000, -80.815
1019.3000, -78.527
1019.4000, -94.530
1019.5000, -81.147
1019.6000, -88.831
1019.7000, -80.615
1019.8000, -78.803
1019.9000, -92.620
1020.0000, -88.194
1020.1000, -80.161
1020.2000,-210.000
1020.3000, -93.823
1020.4000, -78.983
1020.5000, -85.510
1020.6000, -92.227
1020.7000, -78.175
1020.8000,-210.000
1020.9000, -81.094
1021.0000, -81.934
1021.1000, -81.167
1021.2000, -84.822
1021.3000, -81.942
1021.4000, -85.954
1021.5000, -80.639
1021.6000, -85.503
1021.7000, -78.943
1021.8000,-210.000
1021.9000, -79.004
1022.0000,-210.000
1022.1000,-210.000
1022.2000, -78.331
1022.3000, -79.688
1022.4000, -80.587
1022.5000, -89.319
1022.6000, -85.618
1022.7000, -79.173
1022.8000, -91.011
1022.9000, -77.699
1023.0000, -83.798
1023.1000, -85.125
1023.2000, -80.102
1023.3000, -78.659
1023.4000, -84.075
1023.5000,-210.000
1023.6000, -85.780
1023.7000, -80.775
1023.8000, -81.612
1023.9000, -78.891
1024.0000, -78.002
1024.1000, -84.021
1024.2000,-210.000
1024.3000, -79.016
1024.4000, -86.764
1024.5000,-210.000
1024.6000, -79.738
1024.7000, -79.871
1024.8000, -84.045
1024.9000, -85.039
1025.0000, -81.306
1025.1000, -81.990
1025.2000, -80.778
1025.3000, -81.033
1025.4000, -81.948
1025.5000, -82.319
1025.6000, -81.666
1025.7000, -87.937
1025.8000, -82.053
1025.9000, -90.786
1026.0000, -81.143
1026.1000, -81.503
1026.2000, -89.781
1026.3000, -83.448
1026.4000, -80.935
1026.5000, -80.777
1026.6000, -80.445
1026.7000, -84.183
1026.8000, -88.212
1026.9000, -80.943
1027.0000, -80.083
1027.1000, -83.298
1027.2000, -83.796
1027.3000, -80.681
1027.4000, -84.500
1027.5000, -85.634
1027.6000, -81.240
1027.7000, -85.708
1027.8000, -81.408
1027.9000, -83.341
1028.0000, -82.023
1028.1000, -80.748
1028.2000, -84.835
1028.3000, -80.291
1028.4000, -81.371
1028.5000, -80.108
1028.6000, -82.854
1028.7000, -82.934
1028.8000, -84.195
1028.9000, -82.782
1029.0000, -82.544
1029.1000, -81.300
1029.2000, -86.447
1029.3000, -83.988
1029.4000, -80.737
1029.5000, -82.451
1029.6000, -86.033
1029.7000, -79.791
1029.8000, -78.782
1029.9000, -80.513
1030.0000,-210.000
1030.1000, -87.394
1030.2000, -81.889
1030.3000, -85.983
1030.4000,-101.771
1030.5000, -81.403
1030.6000, -85.521
1030.7000, -81.299
1030.8000, -85.782
1030.9000, -81.810
1031.0000, -82.330
1031.1000, -88.691
1031.2000, -80.677
1031.3000, -85.629
1031.4000, -86.462
1031.5000, -84.287
1031.6000, -80.156
1031.7000, -80.651
1031.8000, -84.802
1031.9000, -87.653
1032.0000, -81.154
1032.1000, -82.392
1032.2000, -81.190
1032.3000, -79.855
1032.4000, -83.051
1032.5000,-210.000
1032.6000,-210.000
1032.7000, -81.328
1032.8000, -78.066
1032.9000, -79.389
1033.0000, -84.664
1033.1000, -81.696
1033.2000, -83.152
1033.3000, -84.280
1033.4000, -83.714
1033.5000, -84.554
1033.6000, -81.120
1033.7000, -83.755
1033.8000, -83.418
1033.9000, -80.011
1034.0000, -83.272
1034.1000, -84.794
1034.2000, -82.283
1034.3000, -78.959
1034.4000, -81.165
1034.5000, -81.905
1034.6000, -79.714
1034.7000, -85.143
1034.8000,-210.000
1034.9000, -78.414
1035.0000,-210.000
1035.1000, -83.890
1035.2000, -83.716
1035.3000, -78.154
1035.4000, -81.895
1035.5000,-210.000
1035.6000, -78.679
1035.7000, -96.105
1035.8000, -79.306
1035.9000, -80.896
1036.0000, -82.381
1036.1000, -79.932
1036.2000, -81.774
1036.3000, -82.038
1036.4000, -83.711
1036.5000, -84.422
1036.6000,-210.000
1036.7000, -79.801
1036.8000, -84.666
1036.9000, -79.975
1037.0000, -84.200
1037.1000, -82.279
1037.2000, -85.068
1037.3000, -83.550
1037.4000, -85.520
1037.5000, -82.563
1037.6000, -82.833
1037.7000,-210.000
1037.8000, -82.724
1037.9000, -81.714
1038.0000, -81.481
1038.1000, -81.624
1038.2000, -81.448
1038.3000, -97.618
1038.4000, -83.803
1038.5000, -81.371
1038.6000, -83.152
1038.7000, -81.767
1038.8000, -82.495
1038.9000, -79.517
1039.0000, -90.034
1039.1000, -82.566
1039.2000, -93.417
1039.3000, -80.914
1039.4000, -84.986
1039.5000, -82.862
1039.6000, -82.018
1039.7000, -79.432
1039.8000, -82.623
1039.9000, -81.432
1040.0000, -82.432
1040.1000, -85.617
1040.2000, -81.641
1040.3000, -80.401
1040.4000, -81.430
1040.5000, -86.084
1040.6000, -81.176
1040.7000, -83.672
1040.8000, -81.966
1040.9000, -84.029
1041.0000, -83.522
1041.1000, -78.421
1041.2000, -83.187
1041.3000,-210.000
1041.4000, -82.136
1041.5000, -80.151
1041.6000, -85.211
1041.7000, -80.911
1041.8000,-210.000
1041.9000, -80.069
1042.0000, -85.795
1042.1000, -80.327
1042.2000, -92.924
1042.3000, -80.582
1042.4000, -83.654
1042.5000, -83.111
1042.6000, -80.024
1042.7000, -83.038
1042.8000, -86.919
1042.9000, -85.692
1043.0000, -80.443
1043.1000, -81.145
1043.2000, -83.321
1043.3000,-210.000
1043.4000, -83.566
1043.5000, -81.606
1043.6000, -82.700
1043.7000, -81.673
1043.8000, -81.562
1043.9000, -85.734
1044.0000, -81.438
1044.1000, -78.918
1044.2000, -80.920
1044.3000, -89.111
1044.4000,-100.893
1044.5000, -81.211
1044.6000, -80.479
1044.7000, -80.358
1044.8000, -86.331
1044.9000,-210.000
1045.0000, -79.835
1045.1000, -81.310
1045.2000, -82.204
1045.3000, -84.553
1045.4000, -81.084
1045.5000, -80.714
1045.6000, -80.484
1045.7000,-210.000
1045.8000, -91.319
1045.9000, -80.414
1046.0000, -78.811
1046.1000,-210.000
1046.2000, -82.647
1046.3000, -78.870
1046.4000, -81.569
1046.5000, -82.756
1046.6000, -84.513
1046.7000, -84.406
1046.8000, -82.231
1046.9000, -87.135
1047.0000, -79.223
1047.1000, -83.930
1047.2000, -79.611
1047.3000, -81.513
1047.4000, -87.496
1047.5000, -83.017
1047.6000, -89.616
1047.7000, -84.204
1047.8000, -83.762
1047.9000, -80.692
1048.0000, -81.899
1048.1000, -80.176
1048.2000, -83.012
1048.3000, -80.320
1048.4000,-210.000
1048.5000, -83.501
1048.6000, -85.204
1048.7000, -79.517
1048.8000, -83.088
1048.9000, -82.079
1049.0000, -88.248
1049.1000, -80.989
1049.2000, -80.796
1049.3000,-210.000
1049.4000, -79.504
1049.5000, -80.243
1049.6000,-210.000
1049.7000, -85.668
1049.8000, -87.088
1049.9000, -80.456
1050.0000, -78.574
1050.1000,-210.000
1050.2000, -79.442
1050.3000, -88.434
1050.4000,-210.000
1050.5000, -80.114
1050.6000, -85.398
1050.7000, -80.801
1050.8000, -85.204
1050.9000, -87.904
1051.0000,-210.000
1051.1000, -81.303
1051.2000, -78.713
1051.3000, -82.298
1051.4000, -80.963
1051.5000, -81.441
1051.6000, -85.134
1051.7000, -84.786
1051.8000, -83.553
1051.9000, -82.767
1052.0000, -87.286
1052.1000, -79.871
1052.2000, -78.572
1052.3000, -83.062
1052.4000, -82.905
1052.5000, -79.918
1052.6000,-210.000
1052.7000, -80.740
1052.8000, -80.254
1052.9000, -85.072
1053.0000, -81.693
1053.1000, -85.279
1053.2000, -80.238
1053.3000, -84.919
1053.4000, -81.760
1053.5000, -82.758
1053.6000, -96.209
1053.7000, -78.794
1053.8000, -83.752
1053.9000,-210.000
1054.0000, -81.436
1054.1000, -80.178
1054.2000, -85.731
1054.3000,-210.000
1054.4000, -81.758
1054.5000, -82.008
1054.6000, -87.061
1054.7000, -82.315
1054.8000, -89.875
1054.9000, -83.340
1055.0000, -85.150
1055.1000, -83.356
1055.2000, -80.567
1055.3000, -84.554
1055.4000, -82.447
1055.5000, -81.951
1055.6000, -88.576
1055.7000, -82.167
1055.8000, -87.253
1055.9000, -79.701
1056.0000, -82.661
1056.1000, -82.731
1056.2000, -82.723
1056.3000, -82.865
1056.4000, -83.138
1056.5000, -82.702
1056.6000, -81.456
1056.7000, -81.487
1056.8000, -85.448
1056.9000, -81.033
1057.0000, -82.367
1057.1000, -87.426
1057.2000, -82.732
1057.3000, -81.246
1057.4000, -85.625
1057.5000, -82.493
1057.6000, -82.105
1057.7000, -82.266
1057.8000, -82.589
1057.9000, -83.895
1058.0000, -81.718
1058.1000, -82.824
1058.2000, -82.342
1058.3000, -81.033
1058.4000,-210.000
1058.5000, -79.879
1058.6000,-210.000
1058.7000, -78.530
1058.8000,-210.000
1058.9000, -84.401
1059.0000,-210.000
1059.1000, -79.135
1059.2000, -81.480
1059.3000, -83.914
1059.4000, -91.826
1059.5000, -80.996
1059.6000, -82.402
1059.7000, -82.182
1059.8000, -81.873
1059.9000, -88.217
1060.0000, -81.479
1060.1000, -84.229
1060.2000, -82.771
1060.3000, -81.667
1060.4000, -83.545
1060.5000, -85.298
1060.6000, -82.259
1060.7000, -83.504
1060.8000, -81.115
1060.9000, -81.704
1061.0000, -85.041
1061.1000, -82.562
1061.2000, -79.539
1061.3000, -84.648
1061.4000, -81.943
1061.5000, -81.260
1061.6000, -80.193
1061.7000, -90.557
1061.8000, -82.963
1061.9000, -78.326
1062.0000, -81.742
1062.1000, -79.510
1062.2000, -78.669
1062.3000, -82.173
1062.4000, -80.228
1062.5000, -78.678
1062.6000, -82.692
1062.7000, -86.405
1062.8000, -83.199
1062.9000, -83.581
1063.0000, -79.897
1063.1000, -79.636
1063.2000, -81.233
1063.3000, -79.903
1063.4000, -82.490
1063.5000, -78.952
1063.6000, -80.172
1063.7000, -82.850
1063.8000, -78.291
1063.9000, -77.585
1064.0000, -77.038
1064.1000, -75.689
1064.2000, -72.053
1064.3000, -46.586
1064.4000, -32.999
1064.5000, -30.911
1064.6000, -30.881
1064.7000, -30.844
1064.8000, -30.869
1064.9000, -30.893
1065.0000, -30.938
1065.1000, -33.339
1065.2000, -46.940
1065.3000, -64.218
1065.4000, -75.318
1065.5000, -77.400
1065.6000, -78.649
1065.7000, -77.809
1065.8000, -79.765
1065.9000, -80.749
1066.0000, -80.764
1066.1000, -79.112
1066.2000, -83.721
1066.3000, -78.963
1066.4000, -81.343
1066.5000, -82.870
1066.6000, -81.997
1066.7000, -81.452
1066.8000, -82.850
1066.9000, -86.194
1067.0000, -81.398
1067.1000, -84.871
1067.2000, -81.053
1067.3000, -79.397
1067.4000,-210.000
1067.5000, -79.589
1067.6000, -81.626
1067.7000, -81.620
1067.8000, -83.664
1067.9000, -81.154
1068.0000, -85.440
1068.1000, -81.767
1068.2000, -82.328
1068.3000, -81.501
1068.4000, -81.671
1068.5000, -82.841
1068.6000, -79.939
1068.7000, -83.456
1068.8000, -81.784
1068.9000, -82.341
1069.0000, -80.407
1069.1000, -89.385
1069.2000, -82.415
1069.3000, -81.640
1069.4000, -81.866
1069.5000, -81.389
1069.6000, -83.012
1069.7000, -84.354
1069.8000, -83.060
1069.9000, -82.773
1070.0000, -81.640
1070.1000, -81.317
1070.2000, -83.950
1070.3000, -83.005
1070.4000, -83.036
1070.5000, -85.249
1070.6000, -83.509
1070.7000, -82.540
1070.8000, -80.849
1070.9000, -86.524
1071.0000, -83.468
1071.1000, -83.149
1071.2000, -85.411
1071.3000, -82.588
1071.4000, -82.445
1071.5000, -82.835
1071.6000, -82.736
1071.7000, -82.359
1071.8000, -80.747
1071.9000, -89.457
1072.0000, -85.060
1072.1000, -83.339
1072.2000, -84.716
1072.3000, -86.545
1072.4000, -82.792
1072.5000, -82.116
1072.6000, -82.095
1072.7000, -86.016
1072.8000, -83.876
1072.9000, -80.908
1073.0000, -83.317
1073.1000, -81.069
1073.2000, -82.289
1073.3000, -81.793
1073.4000, -82.235
1073.5000, -84.068
1073.6000, -82.238
1073.7000, -81.998
1073.8000, -81.832
1073.9000, -81.135
1074.0000, -82.347
1074.1000, -80.757
1074.2000, -82.408
1074.3000, -80.758
1074.4000, -83.571
1074.5000, -79.672
1074.6000, -80.875
1074.7000, -84.187
1074.8000, -80.622
1074.9000, -80.305
1075.0000, -80.581
1075.1000, -87.241
1075.2000, -83.457
1075.3000, -88.505
1075.4000, -79.908
1075.5000, -80.792
1075.6000, -86.310
1075.7000, -91.801
1075.8000, -85.183
1075.9000, -80.735
1076.0000, -83.085
1076.1000, -83.725
1076.2000, -83.942
1076.3000, -82.498
1076.4000, -82.623
1076.5000, -84.730
1076.6000, -82.283
1076.7000, -82.887
1076.8000, -84.030
1076.9000, -83.049
1077.0000, -80.491
1077.1000, -83.437
1077.2000, -83.723
1077.3000, -80.914
1077.4000, -83.310
1077.5000, -80.378
1077.6000, -88.509
1077.7000,-210.000
1077.8000, -80.222
1077.9000, -80.911
1078.0000, -91.529
1078.1000, -83.987
1078.2000, -82.130
1078.3000, -82.632
1078.4000, -81.521
1078.5000, -81.505
1078.6000, -80.158
1078.7000, -82.442
1078.8000, -82.770
1078.9000, -83.351
1079.0000, -83.456
1079.1000, -82.968
1079.2000, -82.136
1079.3000, -82.002
1079.4000, -80.434
1079.5000, -94.750
1079.6000, -81.599
1079.7000, -82.554
1079.8000,-210.000
1079.9000, -80.156
1080.0000, -78.596
1080.1000, -83.998
1080.2000, -88.985
1080.3000, -82.362
1080.4000, -84.544
1080.5000, -81.354
1080.6000, -85.375
1080.7000, -81.544
1080.8000, -79.929
1080.9000, -87.563
1081.0000, -82.009
1081.1000, -82.501
1081.2000, -82.748
1081.3000, -84.915
1081.4000, -85.644
1081.5000, -84.827
1081.6000, -80.292
1081.7000, -99.313
1081.8000, -83.743
1081.9000, -84.387
1082.0000, -81.946
1082.1000, -81.957
1082.2000, -82.542
1082.3000, -82.007
1082.4000, -80.353
1082.5000,-210.000
1082.6000,-210.000
1082.7000, -79.122
1082.8000, -79.714
1082.9000,-210.000
1083.0000, -84.115
1083.1000, -82.587
1083.2000, -80.618
1083.3000, -80.232
1083.4000, -84.390
1083.5000, -80.179
1083.6000,-210.000
1083.7000, -82.604
1083.8000, -83.687
1083.9000, -81.321
1084.0000,-210.000
1084.1000, -78.296
1084.2000, -79.872
1084.3000, -82.530
1084.4000, -80.229
1084.5000, -83.219
1084.6000, -88.428
1084.7000, -78.843
1084.8000,-210.000
1084.9000, -83.649
1085.0000, -81.694
1085.1000, -85.962
1085.2000, -80.886
1085.3000, -88.021
1085.4000,-210.000
1085.5000, -84.848
1085.6000, -78.706
1085.7000,-210.000
1085.8000, -83.218
1085.9000, -82.440
1086.0000, -82.976
1086.1000, -81.028
1086.2000, -82.005
1086.3000, -83.205
1086.4000, -82.268
1086.5000, -86.886
1086.6000, -81.674
1086.7000, -82.768
1086.8000, -82.156
1086.9000, -92.775
1087.0000, -81.936
1087.1000, -81.985
1087.2000, -84.484
1087.3000, -81.719
1087.4000, -84.433
1087.5000, -83.717
1087.6000, -84.557
1087.7000, -79.006
1087.8000,-210.000
1087.9000, -84.243
1088.0000, -82.532
1088.1000, -80.874
1088.2000, -83.964
1088.3000, -87.370
1088.4000, -82.384
1088.5000, -85.004
1088.6000, -84.020
1088.7000, -82.970
1088.8000, -81.184
1088.9000, -84.049
1089.0000, -83.896
1089.1000, -81.935
1089.2000, -83.636
1089.3000, -87.215
1089.4000, -83.409
1089.5000, -84.491
1089.6000, -82.064
1089.7000, -82.448
1089.8000, -83.324
1089.9000, -82.530
1090.0000, -82.599
1090.1000, -82.262
1090.2000, -82.800
1090.3000, -83.925
1090.4000, -83.963
1090.5000, -81.020
1090.6000, -81.133
1090.7000, -82.550
1090.8000, -83.011
1090.9000, -80.488
1091.0000, -85.240
1091.1000,-210.000
1091.2000, -83.691
1091.3000, -80.863
1091.4000, -83.824
1091.5000, -82.064
1091.6000, -82.363
1091.7000, -83.765
1091.8000, -82.561
1091.9000, -82.395
1092.0000, -90.814
1092.1000, -82.767
1092.2000, -87.427
1092.3000, -81.869
1092.4000, -81.223
1092.5000, -82.177
1092.6000, -82.548
1092.7000, -84.622
1092.8000, -83.402
1092.9000, -86.943
1093.0000, -82.907
1093.1000, -81.328
1093.2000, -86.314
1093.3000, -83.824
1093.4000, -82.891
1093.5000, -84.028
1093.6000, -81.697
1093.7000, -82.570
1093.8000, -83.253
1093.9000, -85.528
1094.0000, -82.392
1094.1000, -90.671
1094.2000, -83.580
1094.3000, -79.329
1094.4000, -86.359
1094.5000, -88.792
1094.6000, -82.461
1094.7000, -85.841
1094.8000, -78.280
1094.9000, -86.288
1095.0000, -82.993
1095.1000, -82.010
1095.2000, -82.641
1095.3000, -82.709
1095.4000, -91.704
1095.5000, -80.469
1095.6000,-210.000
1095.7000, -83.516
1095.8000, -82.993
1095.9000, -83.022
1096.0000, -82.145
1096.1000, -82.028
1096.2000, -80.927
1096.3000,-210.000
1096.4000, -84.556
1096.5000, -79.283
1096.6000, -84.022
1096.7000,-210.000
1096.8000, -83.200
1096.9000, -80.914
1097.0000, -88.027
1097.1000, -82.654
1097.2000, -81.370
1097.3000,-210.000
1097.4000, -80.825
1097.5000, -79.905
1097.6000, -85.116
1097.7000, -78.989
1097.8000, -87.280
1097.9000, -81.992
1098.0000, -85.691
1098.1000, -83.762
1098.2000,-210.000
1098.3000, -79.927
1098.4000, -83.359
1098.5000, -84.201
1098.6000, -86.353
1098.7000, -83.971
1098.8000, -83.916
1098.9000, -81.060
1099.0000, -83.621
1099.1000, -84.999
1099.2000, -84.202
1099.3000, -84.457
1099.4000, -81.995
1099.5000, -83.055
1099.6000, -82.438
1099.7000, -90.282
1099.8000, -81.379
1099.9000, -83.298
1100.0000, -88.467
1100.1000, -81.512
1100.2000, -83.095
1100.3000, -84.612
1100.4000, -80.400
1100.5000, -84.178
1100.6000, -84.278
1100.7000, -83.110
1100.8000, -84.590
1100.9000, -82.308
1101.0000, -84.667
1101.1000, -82.825
1101.2000, -84.339
1101.3000, -84.661
1101.4000, -84.194
1101.5000, -81.973
1101.6000, -84.321
1101.7000, -83.326
1101.8000, -82.374
1101.9000, -81.483
1102.0000, -84.856
1102.1000,-210.000
1102.2000, -87.548
1102.3000, -80.038
1102.4000, -82.047
1102.5000, -81.057
1102.6000, -88.507
1102.7000, -82.017
1102.8000, -86.046
1102.9000, -82.974
1103.0000, -83.840
1103.1000, -83.623
1103.2000, -82.386
1103.3000, -84.661
1103.4000, -82.765
1103.5000, -84.058
1103.6000, -83.209
1103.7000, -84.835
1103.8000, -82.275
1103.9000, -82.454
1104.0000, -81.313
1104.1000, -87.883
1104.2000, -85.833
1104.3000, -83.271
1104.4000, -85.785
1104.5000, -83.691
1104.6000, -81.689
1104.7000, -82.642
1104.8000, -84.785
1104.9000, -81.495
1105.0000, -83.730
1105.1000, -83.820
1105.2000, -84.395
1105.3000, -86.251
1105.4000, -84.293
1105.5000, -79.356
1105.6000, -84.767
1105.7000, -82.925
1105.8000, -83.482
1105.9000, -83.127
1106.0000, -83.311
1106.1000, -81.364
1106.2000, -84.053
1106.3000, -82.667
1106.4000, -82.247
1106.5000, -82.122
1106.6000, -84.768
1106.7000, -82.440
1106.8000, -86.779
1106.9000, -83.694
1107.0000, -81.067
1107.1000, -81.087
1107.2000, -83.085
1107.3000, -81.666
1107.4000, -85.765
1107.5000, -82.964
1107.6000, -81.783
1107.7000, -83.057
1107.8000, -78.944
1107.9000, -86.253
1108.0000, -82.890
1108.1000,-210.000
1108.2000, -80.144
1108.3000,-210.000
1108.4000, -83.264
1108.5000, -80.479
1108.6000, -80.330
1108.7000, -80.113
1108.8000, -83.565
1108.9000, -84.207
1109.0000, -89.955
1109.1000, -88.016
1109.2000, -88.481
1109.3000, -82.754
1109.4000, -83.929
1109.5000, -83.886
1109.6000, -85.511
1109.7000, -81.042
1109.8000, -85.745
1109.9000, -84.245
1110.0000, -83.463
1110.1000, -82.587
1110.2000, -81.904
1110.3000, -84.888
1110.4000, -82.645
1110.5000, -80.626
1110.6000, -82.131
1110.7000, -83.672
1110.8000, -81.004
1110.9000, -83.196
1111.0000, -82.378
1111.1000, -86.984
1111.2000, -81.564
1111.3000, -82.484
1111.4000, -81.688
1111.5000, -81.733
1111.6000, -84.530
1111.7000, -82.259
1111.8000, -81.232
1111.9000, -82.260
1112.0000, -82.422
1112.1000, -83.787
1112.2000, -81.676
1112.3000, -84.676
1112.4000, -81.517
1112.5000, -81.800
1112.6000, -82.192
1112.7000, -82.785
1112.8000, -82.205
1112.9000, -83.443
1113.0000, -81.020
1113.1000, -84.334
1113.2000, -84.743
1113.3000, -82.595
1113.4000, -81.023
1113.5000, -83.054
1113.6000, -81.491
1113.7000, -84.994
1113.8000, -86.627
1113.9000,-210.000
1114.0000, -79.887
1114.1000, -80.464
1114.2000, -84.359
1114.3000, -84.592
1114.4000, -83.398
1114.5000, -83.959
1114.6000, -82.483
1114.7000, -82.724
1114.8000, -84.077
1114.9000, -81.430
1115.0000, -82.218
1115.1000, -80.541
1115.2000, -83.167
1115.3000, -87.654
1115.4000, -85.014
1115.5000, -84.667
1115.6000, -80.998
1115.7000, -83.556
1115.8000, -81.255
1115.9000, -80.046
1116.0000, -84.477
1116.1000, -84.510
1116.2000, -84.708
1116.3000,-210.000
1116.4000, -80.109
1116.5000, -82.801
1116.6000, -81.883
1116.7000, -85.257
1116.8000, -81.748
1116.9000, -86.498
1117.0000,-210.000
1117.1000, -80.769
1117.2000, -80.642
1117.3000, -81.896
1117.4000, -85.400
1117.5000, -86.847
1117.6000, -83.487
1117.7000, -80.675
1117.8000, -79.172
1117.9000, -81.637
1118.0000,-210.000
1118.1000, -80.057
1118.2000, -84.923
1118.3000, -80.416
1118.4000, -84.826
1118.5000, -82.288
1118.6000, -85.877
1118.7000,-210.000
1118.8000, -83.589
1118.9000, -84.483
1119.0000, -82.926
1119.1000, -80.096
1119.2000, -81.768
1119.3000,-210.000
1119.4000, -84.476
1119.5000, -79.925
1119.6000, -83.532
1119.7000, -83.782
1119.8000, -85.299
1119.9000, -82.394
1120.0000, -82.026
1120.1000, -83.106
1120.2000, -85.552
1120.3000, -80.850
1120.4000, -85.138
1120.5000, -81.593
1120.6000, -82.602
1120.7000, -89.802
1120.8000, -98.473
1120.9000, -80.688
1121.0000, -81.434
1121.1000, -84.139
1121.2000, -83.702
1121.3000, -83.400
1121.4000, -81.460
1121.5000, -84.407
1121.6000, -83.074
1121.7000, -81.449
1121.8000, -82.308
1121.9000, -84.407
1122.0000, -83.114
1122.1000, -84.439
1122.2000, -83.966
1122.3000, -81.265
1122.4000, -83.071
1122.5000, -83.073
1122.6000, -83.172
1122.7000, -88.496
1122.8000, -83.285
1122.9000, -81.022
1123.0000, -82.954
1123.1000, -84.100
1123.2000, -79.333
1123.3000, -81.257
1123.4000,-210.000
1123.5000, -82.565
1123.6000, -81.657
1123.7000, -84.939
1123.8000, -81.692
1123.9000, -86.740
1124.0000, -82.524
1124.1000, -85.111
1124.2000, -82.357
1124.3000, -82.105
1124.4000, -81.833
1124.5000, -82.032
1124.6000, -83.033
1124.7000, -81.317
1124.8000, -81.644
1124.9000, -86.130
1125.0000, -82.961
1125.1000, -83.761
1125.2000, -82.862
1125.3000, -82.694
1125.4000, -94.195
1125.5000, -82.918
1125.6000, -86.929
1125.7000, -84.464
1125.8000, -82.990
1125.9000, -82.691
1126.0000, -88.350
1126.1000, -83.576
1126.2000, -81.630
1126.3000, -83.991
1126.4000, -84.048
1126.5000, -82.322
1126.6000, -84.842
1126.7000, -82.784
1126.8000, -80.917
1126.9000, -84.727
1127.0000, -83.501
1127.1000, -82.871
1127.2000, -83.445
1127.3000, -80.890
1127.4000, -81.308
1127.5000, -79.648
1127.6000,-210.000
1127.7000,-210.000
1127.8000, -79.387
1127.9000,-210.000
1128.0000, -87.610
1128.1000, -80.045
1128.2000,-210.000
1128.3000, -83.235
1128.4000, -88.430
1128.5000, -82.201
1128.6000, -84.063
1128.7000, -83.351
1128.8000, -83.821
1128.9000, -82.879
1129.0000, -86.019
1129.1000, -86.013
1129.2000, -82.916
1129.3000, -81.768
1129.4000, -83.072
1129.5000, -81.739
1129.6000, -83.298
1129.7000, -81.382
1129.8000, -82.144
1129.9000, -85.228
1130.0000, -82.593
1130.1000,-210.000
1130.2000, -85.942
1130.3000, -82.992
1130.4000, -81.776
1130.5000, -83.057
1130.6000, -83.866
1130.7000, -83.976
1130.8000, -82.501
1130.9000, -84.983
1131.0000, -85.506
1131.1000, -88.382
1131.2000, -83.968
1131.3000, -84.611
1131.4000, -83.994
1131.5000, -82.509
1131.6000, -90.300
1131.7000, -83.049
1131.8000, -81.790
1131.9000, -83.830
1132.0000, -85.309
1132.1000, -81.569
1132.2000, -84.707
1132.3000, -83.475
1132.4000, -83.222
1132.5000, -84.426
1132.6000, -83.599
1132.7000, -82.297
1132.8000, -87.773
1132.9000, -82.370
1133.0000, -82.944
1133.1000, -83.200
1133.2000, -81.460
1133.3000, -82.862
1133.4000, -84.502
1133.5000, -86.924
1133.6000, -80.615
1133.7000, -82.877
1133.8000, -81.646
1133.9000, -83.400
1134.0000, -85.787
1134.1000, -85.653
1134.2000, -83.908
1134.3000, -82.801
1134.4000, -84.244
1134.5000, -85.253
1134.6000, -81.901
1134.7000, -84.927
1134.8000, -85.422
1134.9000, -84.378
1135.0000, -81.797
1135.1000, -82.233
1135.2000, -89.993
1135.3000, -86.077
1135.4000, -80.832
1135.5000, -85.639
1135.6000, -86.945
1135.7000, -84.225
1135.8000, -80.418
1135.9000,-210.000
1136.0000, -82.325
1136.1000, -82.206
1136.2000, -82.299
1136.3000, -83.323
1136.4000, -85.992
1136.5000, -83.678
1136.6000, -86.593
1136.7000, -83.480
1136.8000, -85.330
1136.9000, -82.089
1137.0000, -85.173
1137.1000, -85.643
1137.2000, -82.644
1137.3000, -86.422
1137.4000, -83.612
1137.5000, -85.733
1137.6000, -83.948
1137.7000, -85.027
1137.8000, -83.152
1137.9000, -81.720
1138.0000, -85.257
1138.1000, -83.938
1138.2000, -88.866
1138.3000, -81.336
1138.4000, -84.214
1138.5000, -89.813
1138.6000, -84.531
1138.7000, -84.245
1138.8000, -80.096
1138.9000, -86.255
1139.0000, -89.460
1139.1000, -82.169
1139.2000, -82.915
1139.3000, -82.485
1139.4000, -94.708
1139.5000, -83.144
1139.6000, -83.324
1139.7000, -85.009
1139.8000, -82.308
1139.9000, -84.149
1140.0000, -86.701
1140.1000, -82.817
1140.2000, -81.700
1140.3000,-210.000
1140.4000, -82.208
1140.5000, -83.452
1140.6000, -82.512
1140.7000, -81.538
1140.8000, -81.828
1140.9000, -83.788
1141.0000, -91.913
1141.1000,-210.000
1141.2000, -79.552
1141.3000, -86.300
1141.4000, -85.525
1141.5000, -82.919
1141.6000, -83.301
1141.7000, -81.468
1141.8000, -90.454
1141.9000, -82.041
1142.0000, -81.567
1142.1000, -83.298
1142.2000, -80.290
1142.3000, -82.878
1142.4000,-210.000
1142.5000, -92.758
1142.6000, -82.161
1142.7000, -82.660
1142.8000, -80.141
1142.9000,-210.000
1143.0000, -83.379
1143.1000, -87.358
1143.2000, -82.575
1143.3000, -84.125
1143.4000, -84.143
1143.5000, -84.030
1143.6000, -83.804
1143.7000, -82.903
1143.8000, -83.958
1143.9000, -81.904
1144.0000, -83.861
1144.1000, -87.375
1144.2000, -79.616
1144.3000, -82.761
1144.4000,-210.000
1144.5000, -84.725
1144.6000, -82.723
1144.7000, -79.501
1144.8000, -82.146
1144.9000, -91.996
1145.0000, -88.190
1145.1000, -82.703
1145.2000, -83.796
1145.3000, -82.084
1145.4000, -83.963
1145.5000, -85.599
1145.6000, -84.077
1145.7000, -83.756
1145.8000, -81.405
1145.9000, -87.719
1146.0000, -88.577
1146.1000, -85.733
1146.2000, -83.198
1146.3000, -81.930
1146.4000, -82.603
1146.5000, -82.026
1146.6000, -83.878
1146.7000, -85.532
1146.8000, -83.333
1146.9000, -83.457
1147.0000, -84.089
1147.1000, -81.587
1147.2000, -84.547
1147.3000, -84.614
1147.4000, -83.324
1147.5000, -82.843
1147.6000, -81.394
1147.7000, -82.462
1147.8000, -84.175
1147.9000, -81.767
1148.0000, -83.348
1148.1000, -86.264
1148.2000, -86.175
1148.3000, -82.797
1148.4000, -82.523
1148.5000, -86.205
1148.6000, -82.311
1148.7000, -85.084
1148.8000, -86.196
1148.9000, -83.749
1149.0000, -83.150
1149.1000, -82.391
1149.2000, -81.641
1149.3000, -82.085
1149.4000, -83.352
1149.5000, -89.232
1149.6000, -82.894
1149.7000, -84.710
1149.8000, -83.929
1149.9000, -84.975
1150.0000, -85.859
1150.1000, -81.915
1150.2000, -85.917
1150.3000, -84.415
1150.4000, -84.362
1150.5000, -86.301
1150.6000, -83.265
1150.7000, -80.160
1150.8000, -83.850
1150.9000, -82.870
1151.0000, -84.925
1151.1000, -83.506
1151.2000, -83.548
1151.3000, -84.390
1151.4000, -91.551
1151.5000, -83.425
1151.6000, -82.818
1151.7000, -83.054
1151.8000, -81.716
1151.9000,-210.000
1152.0000, -81.202
1152.1000, -82.960
1152.2000, -83.888
1152.3000, -82.523
1152.4000, -84.597
1152.5000, -83.098
1152.6000, -83.060
1152.7000, -82.045
1152.8000, -89.178
1152.9000, -87.210
1153.0000, -83.959
1153.1000, -82.173
1153.2000, -81.767
1153.3000, -85.037
1153.4000, -83.967
1153.5000, -82.856
1153.6000, -82.926
1153.7000, -79.825
1153.8000,-210.000
1153.9000, -86.787
1154.0000, -82.755
1154.1000, -78.759
1154.2000, -87.616
1154.3000,-210.000
1154.4000, -81.163
1154.5000, -82.511
1154.6000,-210.000
1154.7000, -93.744
1154.8000, -84.735
1154.9000, -81.441
1155.0000, -83.256
1155.1000, -89.247
1155.2000, -84.508
1155.3000, -86.022
1155.4000, -82.049
1155.5000, -94.628
1155.6000, -82.172
1155.7000, -82.378
1155.8000, -88.307
1155.9000, -85.719
1156.0000, -82.347
1156.1000, -83.790
1156.2000, -84.604
1156.3000, -84.652
1156.4000, -83.305
1156.5000, -82.951
1156.6000, -82.131
1156.7000, -87.187
1156.8000, -79.697
1156.9000,-210.000
1157.0000, -83.546
1157.1000, -84.010
1157.2000, -81.465
1157.3000, -83.132
1157.4000, -85.686
1157.5000, -82.611
1157.6000, -96.179
1157.7000, -84.266
1157.8000, -79.877
1157.9000, -86.221
1158.0000, -83.656
1158.1000, -84.236
1158.2000, -86.802
1158.3000, -82.096
1158.4000,-210.000
1158.5000, -80.256
1158.6000, -89.997
1158.7000, -83.354
1158.8000, -81.194
1158.9000, -83.816
1159.0000, -86.695
1159.1000, -82.814
1159.2000, -80.321
1159.3000, -84.061
1159.4000, -83.686
1159.5000, -83.315
1159.6000,-210.000
1159.7000, -85.690
1159.8000, -90.981
1159.9000, -88.337
1160.0000, -82.554
1160.1000, -83.551
1160.2000, -86.074
1160.3000, -89.583
1160.4000, -81.616
1160.5000, -85.918
1160.6000, -85.503
1160.7000, -81.913
1160.8000, -83.432
1160.9000, -82.815
1161.0000, -82.001
1161.1000, -85.356
1161.2000, -82.451
1161.3000, -84.435
1161.4000, -82.326
1161.5000, -81.903
1161.6000, -84.908
1161.7000, -84.070
1161.8000, -86.262
1161.9000, -83.476
1162.0000, -82.563
1162.1000, -87.444
1162.2000, -84.036
1162.3000, -83.670
1162.4000, -82.269
1162.5000, -83.674
1162.6000, -82.702
1162.7000, -84.661
1162.8000, -83.713
1162.9000, -84.117
1163.0000, -81.665
1163.1000, -84.092
1163.2000,-210.000
1163.3000, -84.597
1163.4000, -88.586
1163.5000, -84.992
1163.6000, -83.839
1163.7000, -83.117
1163.8000, -87.428
1163.9000, -82.871
1164.0000, -91.425
1164.1000, -89.537
1164.2000, -81.630
1164.3000, -80.261
1164.4000, -83.950
1164.5000, -94.510
1164.6000, -83.581
1164.7000, -84.334
1164.8000, -83.378
1164.9000, -80.676
1165.0000, -81.965
1165.1000, -84.696
1165.2000, -85.458
1165.3000, -82.980
1165.4000, -83.015
1165.5000, -83.082
1165.6000, -83.256
1165.7000, -86.525
1165.8000, -84.740
1165.9000, -81.762
1166.0000, -86.130
1166.1000, -82.048
1166.2000,-210.000
1166.3000, -83.976
1166.4000, -83.654
1166.5000, -81.925
1166.6000, -85.199
1166.7000, -78.437
1166.8000, -87.604
1166.9000, -86.229
1167.0000, -84.999
1167.1000, -83.762
1167.2000,-210.000
1167.3000, -85.144
1167.4000, -86.190
1167.5000, -83.252
1167.6000, -85.860
1167.7000, -86.003
1167.8000, -83.564
1167.9000, -82.179
1168.0000, -86.879
1168.1000, -84.452
1168.2000, -84.643
1168.3000, -81.898
1168.4000, -81.999
1168.5000, -83.080
1168.6000, -82.845
1168.7000, -85.440
1168.8000, -82.346
1168.9000, -86.699
1169.0000, -82.377
1169.1000, -81.332
1169.2000, -89.931
1169.3000, -83.147
1169.4000, -86.182
1169.5000, -82.206
1169.6000, -85.056
1169.7000, -85.384
1169.8000, -81.191
1169.9000, -81.246
1170.0000, -83.786
1170.1000, -87.935
1170.2000, -81.862
1170.3000, -83.976
1170.4000, -82.595
1170.5000, -83.060
1170.6000, -86.323
1170.7000, -81.510
1170.8000, -82.481
1170.9000, -83.745
1171.0000, -81.470
1171.1000, -86.532
1171.2000, -80.975
1171.3000, -83.627
1171.4000, -80.195
1171.5000, -85.709
1171.6000, -91.415
1171.7000, -83.371
1171.8000, -84.032
1171.9000, -82.393
1172.0000,-210.000
1172.1000, -84.617
1172.2000, -91.399
1172.3000, -82.867
1172.4000, -84.156
1172.5000, -83.905
1172.6000, -79.966
1172.7000, -85.493
1172.8000, -91.686
1172.9000, -83.502
1173.0000, -83.020
1173.1000, -82.690
1173.2000, -82.649
1173.3000, -85.932
1173.4000, -81.998
1173.5000, -82.056
1173.6000, -82.414
1173.7000, -84.708
1173.8000, -84.983
1173.9000, -83.593
1174.0000, -88.414
1174.1000, -89.057
1174.2000,-210.000
1174.3000, -80.062
1174.4000, -79.697
1174.5000, -81.374
1174.6000, -84.424
1174.7000, -91.883
1174.8000, -81.227
1174.9000, -83.771
1175.0000, -82.483
1175.1000, -86.344
1175.2000, -85.004
1175.3000, -82.619
1175.4000, -85.265
1175.5000, -81.065
1175.6000,-210.000
1175.7000, -83.559
1175.8000, -85.104
1175.9000, -82.489
1176.0000, -84.505
1176.1000, -85.641
1176.2000, -82.847
1176.3000, -82.852
1176.4000, -83.286
1176.5000, -86.818
1176.6000, -83.308
1176.7000, -84.135
1176.8000, -84.189
1176.9000, -86.399
1177.0000, -82.268
1177.1000, -84.563
1177.2000, -80.087
1177.3000, -81.341
1177.4000,-210.000
1177.5000, -85.246
1177.6000, -83.068
1177.7000, -83.095
1177.8000, -81.013
1177.9000,-210.000
1178.0000, -80.936
1178.1000,-210.000
1178.2000, -82.308
1178.3000, -87.671
1178.4000, -81.525
1178.5000, -83.605
1178.6000, -84.243
1178.7000, -79.456
1178.8000, -82.113
1178.9000,-210.000
1179.0000,-210.000
1179.1000, -79.955
1179.2000, -81.797
1179.3000,-210.000
1179.4000, -85.366
1179.5000, -83.297
1179.6000, -79.207
1179.7000, -84.692
1179.8000, -81.514
1179.9000, -85.911
1180.0000,-210.000
1180.1000, -78.776
1180.2000, -82.850
1180.3000, -82.174
1180.4000,-210.000
1180.5000, -82.482
1180.6000, -79.750
1180.7000, -96.508
1180.8000, -81.693
1180.9000, -83.292
1181.0000, -83.037
1181.1000, -87.133
1181.2000, -83.230
1181.3000, -87.117
1181.4000, -83.291
1181.5000, -83.835
1181.6000, -82.599
1181.7000, -85.815
1181.8000, -83.665
1181.9000, -89.614
1182.0000, -84.673
1182.1000, -85.652
1182.2000, -86.057
1182.3000, -85.086
1182.4000, -83.841
1182.5000,-210.000
1182.6000, -83.083
1182.7000, -88.273
1182.8000, -82.087
1182.9000, -81.097
1183.0000, -87.610
1183.1000, -83.475
1183.2000, -84.410
1183.3000, -83.234
1183.4000, -86.995
1183.5000, -83.942
1183.6000, -83.408
1183.7000, -86.062
1183.8000, -84.464
1183.9000, -85.338
1184.0000, -82.733
1184.1000, -82.886
1184.2000, -86.080
1184.3000, -87.030
1184.4000, -84.738
1184.5000, -83.436
1184.6000, -83.733
1184.7000, -85.247
1184.8000, -87.096
1184.9000, -82.483
1185.0000, -87.071
1185.1000, -84.485
1185.2000, -83.755
1185.3000, -84.727
1185.4000, -82.283
1185.5000, -86.855
1185.6000, -84.647
1185.7000, -93.945
1185.8000, -82.244
1185.9000, -83.628
1186.0000, -82.412
1186.1000, -85.399
1186.2000, -84.066
1186.3000, -82.787
1186.4000, -84.601
1186.5000, -85.896
1186.6000, -83.345
1186.7000, -85.087
1186.8000, -82.305
1186.9000, -84.086
1187.0000, -84.864
1187.1000, -82.906
1187.2000, -83.338
1187.3000, -84.192
1187.4000, -83.444
1187.5000, -83.859
1187.6000, -85.560
1187.7000, -84.038
1187.8000, -82.627
1187.9000, -86.241
1188.0000, -83.136
1188.1000, -82.220
1188.2000, -83.415
1188.3000, -84.396
1188.4000, -83.553
1188.5000, -85.249
1188.6000, -89.796
1188.7000, -83.062
1188.8000, -86.592
1188.9000, -83.254
1189.0000, -86.551
1189.1000, -86.136
1189.2000, -83.627
1189.3000, -84.176
1189.4000, -84.243
1189.5000, -85.169
1189.6000, -81.367
1189.7000, -89.383
1189.8000, -86.579
1189.9000, -83.074
1190.0000, -86.289
1190.1000, -81.640
1190.2000, -83.429
1190.3000, -84.018
1190.4000, -81.737
1190.5000, -79.512
1190.6000, -83.024
1190.7000, -93.874
1190.8000, -83.173
1190.9000,-210.000
1191.0000, -82.806
1191.1000, -88.611
1191.2000, -83.111
1191.3000, -79.740
1191.4000,-210.000
1191.5000,-210.000
1191.6000, -82.236
1191.7000, -81.587
1191.8000, -84.299
1191.9000, -83.971
1192.0000, -83.899
1192.1000, -81.635
1192.2000, -83.548
1192.3000, -84.422
1192.4000,-210.000
1192.5000, -83.178
1192.6000, -83.491
1192.7000, -82.731
1192.8000, -84.781
1192.9000, -83.060
1193.0000, -85.787
1193.1000, -98.501
1193.2000, -82.508
1193.3000, -84.410
1193.4000, -83.661
1193.5000, -86.154
1193.6000, -84.936
1193.7000, -84.292
1193.8000, -83.053
1193.9000, -86.339
1194.0000, -84.688
1194.1000, -80.939
1194.2000, -85.420
1194.3000, -83.843
1194.4000, -88.212
1194.5000, -86.721
1194.6000, -82.969
1194.7000, -83.481
1194.8000, -82.795
1194.9000, -84.133
1195.0000, -83.480
1195.1000, -87.104
1195.2000, -84.231
1195.3000, -82.123
1195.4000, -83.970
1195.5000, -83.921
1195.6000, -84.100
1195.7000, -86.326
1195.8000, -83.581
1195.9000, -82.168
1196.0000, -86.476
1196.1000, -86.863
1196.2000, -82.964
1196.3000, -82.743
1196.4000, -82.463
1196.5000, -82.486
1196.6000, -85.015
1196.7000, -82.689
1196.8000, -81.870
1196.9000, -84.310
1197.0000, -81.909
1197.1000,-210.000
1197.2000, -87.347
1197.3000, -81.943
1197.4000, -81.035
1197.5000, -80.291
1197.6000, -92.605
1197.7000, -83.470
1197.8000, -84.691
1197.9000, -80.258
1198.0000, -84.668
1198.1000, -82.396
1198.2000, -81.736
1198.3000, -96.377
1198.4000, -85.946
1198.5000, -82.866
1198.6000, -81.155
1198.7000, -84.811
1198.8000, -83.693
1198.9000, -83.323
1199.0000, -87.574
1199.1000, -82.067
1199.2000, -89.366
1199.3000, -83.018
1199.4000, -83.624
1199.5000, -81.925
1199.6000, -81.963
1199.7000, -83.562
1199.8000, -86.572
1199.9000, -82.805
1200.0000, -82.195
1200.1000, -82.422
1200.2000, -86.723
1200.3000, -83.055
1200.4000, -80.827
1200.5000, -85.666
1200.6000, -83.288
1200.7000, -82.842
1200.8000, -83.382
1200.9000, -85.075
1201.0000, -83.290
1201.1000, -87.993
1201.2000, -84.929
1201.3000, -82.486
1201.4000, -82.720
1201.5000, -84.621
1201.6000, -83.353
1201.7000, -83.699
1201.8000, -83.837
1201.9000, -82.809
1202.0000, -83.907
1202.1000, -88.984
1202.2000, -85.400
1202.3000, -82.785
1202.4000, -81.738
1202.5000, -88.944
1202.6000, -90.546
1202.7000, -82.599
1202.8000, -83.745
1202.9000, -82.985
1203.0000, -82.125
1203.1000, -84.105
1203.2000, -85.695
1203.3000, -82.991
1203.4000, -83.242
1203.5000, -83.812
1203.6000, -84.147
1203.7000, -86.280
1203.8000, -82.960
1203.9000, -84.107
1204.0000, -89.411
1204.1000, -85.623
1204.2000, -83.729
1204.3000, -84.272
1204.4000, -83.527
1204.5000, -92.517
1204.6000, -83.001
1204.7000, -87.819
1204.8000, -82.232
1204.9000, -84.925
1205.0000, -84.470
1205.1000, -81.841
1205.2000, -83.936
1205.3000, -83.032
1205.4000, -80.293
1205.5000,-210.000
1205.6000, -83.903
1205.7000, -81.827
1205.8000, -85.884
1205.9000, -82.828
1206.0000, -82.357
1206.1000, -85.103
1206.2000, -82.648
1206.3000, -82.482
1206.4000, -83.446
1206.5000, -83.773
1206.6000, -82.155
1206.7000, -80.126
1206.8000, -89.537
1206.9000, -83.095
1207.0000, -93.206
1207.1000, -82.912
1207.2000,-210.000
1207.3000, -82.604
1207.4000, -87.311
1207.5000, -83.552
1207.6000, -81.753
1207.7000, -86.441
1207.8000, -84.345
1207.9000, -86.068
1208.0000, -81.373
1208.1000, -86.783
1208.2000, -87.473
1208.3000, -84.538
1208.4000, -83.844
1208.5000, -84.736
1208.6000, -83.444
1208.7000, -81.959
1208.8000, -82.717
1208.9000, -86.213
1209.0000, -83.282
1209.1000, -82.935
1209.2000, -85.033
1209.3000, -88.104
1209.4000, -88.575
1209.5000, -82.168
1209.6000, -85.235
1209.7000, -83.989
1209.8000, -90.162
1209.9000, -82.521
1210.0000, -82.310
1210.1000, -81.719
1210.2000, -83.193
1210.3000, -82.656
1210.4000, -83.963
1210.5000, -83.497
1210.6000, -86.955
1210.7000, -82.862
1210.8000, -83.605
1210.9000, -84.072
1211.0000, -82.408
1211.1000, -87.522
1211.2000, -81.038
1211.3000, -86.374
1211.4000, -87.195
1211.5000,-106.178
1211.6000, -81.377
1211.7000, -84.280
1211.8000,-210.000
1211.9000, -83.124
1212.0000, -83.081
1212.1000, -82.829
1212.2000, -82.073
1212.3000, -88.565
1212.4000, -83.540
1212.5000, -84.202
1212.6000, -83.010
1212.7000, -80.716
1212.8000, -83.991
1212.9000, -83.077
1213.0000, -87.079
1213.1000, -84.967
1213.2000, -83.795
1213.3000, -83.163
1213.4000, -83.249
1213.5000, -82.906
1213.6000, -85.044
1213.7000, -82.074
1213.8000, -82.201
1213.9000,-210.000
1214.0000, -80.266
1214.1000, -81.938
1214.2000, -87.439
1214.3000, -82.400
1214.4000, -86.086
1214.5000, -81.011
1214.6000, -82.357
1214.7000, -90.674
1214.8000, -80.461
1214.9000, -80.749
1215.0000,-210.000
1215.1000, -84.010
1215.2000, -83.981
1215.3000, -83.946
1215.4000, -82.915
1215.5000, -83.184
1215.6000,-210.000
1215.7000, -86.840
1215.8000, -79.965
1215.9000, -82.291
1216.0000, -97.495
1216.1000, -81.867
1216.2000, -83.771
1216.3000, -83.262
1216.4000, -82.766
1216.5000, -86.735
1216.6000, -84.640
1216.7000, -83.042
1216.8000, -82.202
1216.9000, -80.410
1217.0000,-210.000
1217.1000, -81.587
1217.2000, -81.739
1217.3000, -83.145
1217.4000, -83.803
1217.5000, -84.708
1217.6000, -83.133
1217.7000, -85.741
1217.8000, -84.760
1217.9000, -83.467
1218.0000, -85.277
1218.1000, -82.071
1218.2000, -84.034
1218.3000, -81.089
1218.4000, -82.874
1218.5000, -85.500
1218.6000, -82.929
1218.7000,-210.000
1218.8000, -91.326
1218.9000, -81.671
1219.0000, -84.405
1219.1000, -94.005
1219.2000, -84.509
1219.3000, -78.684
1219.4000,-210.000
1219.5000,-210.000
1219.6000,-210.000
1219.7000, -82.018
1219.8000, -83.231
1219.9000, -84.277
1220.0000, -81.057
1220.1000, -84.374
1220.2000, -85.370
1220.3000, -81.736
1220.4000, -86.726
1220.5000, -84.692
1220.6000, -83.883
1220.7000, -82.526
1220.8000, -85.202
1220.9000, -82.429
1221.0000, -83.137
1221.1000, -82.015
1221.2000, -81.451
1221.3000, -84.500
1221.4000, -82.727
1221.5000, -89.052
1221.6000, -84.772
1221.7000, -83.718
1221.8000, -82.971
1221.9000, -82.098
1222.0000, -86.871
1222.1000, -82.997
1222.2000, -84.226
1222.3000, -84.053
1222.4000, -82.558
1222.5000, -82.604
1222.6000, -83.236
1222.7000, -83.424
1222.8000, -84.787
1222.9000, -84.460
1223.0000, -80.588
1223.1000, -82.170
1223.2000,-210.000
1223.3000, -78.075
1223.4000,-210.000
1223.5000, -83.341
1223.6000, -81.439
1223.7000, -85.572
1223.8000, -87.929
1223.9000, -83.792
1224.0000, -85.943
1224.1000, -87.079
1224.2000, -84.734
1224.3000, -81.376
1224.4000, -84.022
1224.5000, -84.457
1224.6000, -86.328
1224.7000, -82.250
1224.8000, -84.636
1224.9000, -84.191
1225.0000, -83.235
1225.1000, -82.189
1225.2000, -83.331
1225.3000, -85.677
1225.4000, -84.272
1225.5000, -92.101
1225.6000, -84.748
1225.7000, -83.538
1225.8000, -86.045
1225.9000, -84.167
1226.0000, -80.486
1226.1000, -84.178
1226.2000, -84.866
1226.3000, -82.518
1226.4000, -84.504
1226.5000, -88.056
1226.6000, -84.294
1226.7000, -83.032
1226.8000, -82.438
1226.9000, -97.463
1227.0000, -88.875
1227.1000, -80.724
1227.2000, -83.163
1227.3000, -89.061
1227.4000, -92.429
1227.5000, -82.973
1227.6000, -85.634
1227.7000, -83.462
1227.8000, -84.565
1227.9000, -84.174
1228.0000, -89.732
1228.1000, -80.767
1228.2000, -83.043
1228.3000, -82.188
1228.4000, -87.497
1228.5000, -83.704
1228.6000, -82.860
1228.7000, -81.999
1228.8000, -89.095
1228.9000, -82.471
1229.0000, -82.653
1229.1000, -87.317
1229.2000, -87.789
1229.3000, -82.812
1229.4000, -82.167
1229.5000, -80.062
1229.6000, -86.562
1229.7000, -83.283
1229.8000, -83.076
1229.9000, -86.806
1230.0000, -83.940
1230.1000, -86.050
1230.2000, -81.871
1230.3000, -83.551
1230.4000, -84.669
1230.5000, -83.541
1230.6000, -81.692
1230.7000, -86.780
1230.8000, -83.678
1230.9000, -83.547
1231.0000, -83.644
1231.1000, -82.774
1231.2000, -83.627
1231.3000, -85.036
1231.4000, -84.275
1231.5000, -84.657
1231.6000, -81.932
1231.7000, -84.841
1231.8000, -83.082
1231.9000,-210.000
1232.0000, -82.104
1232.1000, -86.774
1232.2000, -85.554
1232.3000, -82.076
1232.4000, -84.067
1232.5000, -84.833
1232.6000, -81.140
1232.7000, -88.545
1232.8000, -82.674
1232.9000,-210.000
1233.0000, -82.544
1233.1000, -85.559
1233.2000, -85.127
1233.3000, -82.811
1233.4000, -85.995
1233.5000, -81.844
1233.6000, -85.224
1233.7000, -85.996
1233.8000, -81.894
1233.9000, -81.025
1234.0000, -86.768
1234.1000, -83.170
1234.2000, -83.707
1234.3000, -84.143
1234.4000, -84.372
1234.5000, -83.585
1234.6000, -84.564
1234.7000, -83.240
1234.8000, -81.901
1234.9000, -84.211
1235.0000, -92.931
1235.1000, -84.535
1235.2000, -82.260
1235.3000, -82.511
1235.4000, -87.343
1235.5000, -83.110
1235.6000, -83.233
1235.7000, -82.212
1235.8000, -82.815
1235.9000, -84.579
1236.0000, -83.888
1236.1000, -83.492
1236.2000, -83.383
1236.3000, -86.377
1236.4000, -84.702
1236.5000, -85.528
1236.6000, -81.127
1236.7000,-105.093
1236.8000, -85.054
1236.9000, -85.124
1237.0000, -81.891
1237.1000, -87.801
1237.2000, -82.661
1237.3000, -87.208
1237.4000,-210.000
1237.5000, -81.604
1237.6000, -85.645
1237.7000, -82.984
1237.8000, -80.397
1237.9000,-210.000
1238.0000, -85.544
1238.1000, -81.597
1238.2000, -85.138
1238.3000, -87.626
1238.4000, -83.382
1238.5000, -81.201
1238.6000, -84.916
1238.7000, -85.786
1238.8000, -83.551
1238.9000, -84.773
1239.0000, -82.142
1239.1000, -85.351
1239.2000, -81.745
1239.3000, -88.628
1239.4000, -82.178
1239.5000, -84.518
1239.6000, -84.817
1239.7000, -83.247
1239.8000, -83.356
1239.9000, -82.477
1240.0000, -83.340
1240.1000, -83.893
1240.2000, -84.681
1240.3000, -82.183
1240.4000, -85.377
1240.5000, -81.179
1240.6000, -85.100
1240.7000, -87.276
1240.8000, -81.380
1240.9000, -86.378
1241.0000, -85.111
1241.1000, -85.173
1241.2000, -81.864
1241.3000, -85.282
1241.4000, -83.975
1241.5000, -84.344
1241.6000, -85.347
1241.7000, -84.485
1241.8000, -83.865
1241.9000, -82.581
1242.0000, -83.029
1242.1000, -88.646
1242.2000, -81.807
1242.3000, -83.423
1242.4000, -82.778
1242.5000, -83.752
1242.6000,-210.000
1242.7000, -84.502
1242.8000, -82.722
1242.9000, -83.992
1243.0000, -85.875
1243.1000, -81.530
1243.2000, -84.008
1243.3000, -85.710
1243.4000, -86.741
1243.5000, -82.510
1243.6000, -86.069
1243.7000, -81.131
1243.8000, -85.961
1243.9000, -84.441
1244.0000, -84.709
1244.1000, -81.695
1244.2000, -82.428
1244.3000, -86.052
1244.4000, -82.799
1244.5000, -83.310
1244.6000, -81.267
1244.7000, -82.470
1244.8000, -82.794
1244.9000, -84.091
1245.0000, -82.726
1245.1000, -86.589
1245.2000, -84.442
1245.3000, -84.044
1245.4000, -81.693
1245.5000, -87.134
1245.6000, -83.492
1245.7000, -84.096
1245.8000, -84.532
1245.9000, -83.271
1246.0000, -83.328
1246.1000, -83.854
1246.2000, -89.341
1246.3000, -82.977
1246.4000, -82.793
1246.5000, -85.143
1246.6000, -89.426
1246.7000, -83.288
1246.8000, -83.140
1246.9000, -82.038
1247.0000, -84.398
1247.1000, -85.352
1247.2000, -85.990
1247.3000, -86.042
1247.4000, -82.854
1247.5000, -84.263
1247.6000, -83.051
1247.7000, -81.639
1247.8000, -83.683
1247.9000, -83.380
1248.0000, -82.302
1248.1000, -85.164
1248.2000, -82.015
1248.3000, -82.947
1248.4000, -84.744
1248.5000, -82.550
1248.6000, -84.996
1248.7000, -84.914
1248.8000, -85.409
1248.9000, -84.528
1249.0000, -82.885
1249.1000, -85.008
1249.2000, -85.411
1249.3000, -83.266
1249.4000, -81.734
1249.5000, -85.952
1249.6000, -84.340
1249.7000, -85.374
1249.8000, -80.969
1249.9000,-210.000
1250.0000, -80.413
1250.1000, -84.918
1250.2000, -83.180
1250.3000, -84.689
1250.4000, -80.481
1250.5000, -90.367
1250.6000, -80.763
1250.7000, -84.582
1250.8000, -87.595
1250.9000, -82.274
1251.0000, -84.481
1251.1000, -80.705
1251.2000, -91.600
1251.3000, -83.706
1251.4000, -87.298
1251.5000, -81.280
1251.6000, -86.462
1251.7000, -83.929
1251.8000, -82.154
1251.9000, -85.587
1252.0000, -82.338
1252.1000, -85.921
1252.2000, -83.740
1252.3000, -85.037
1252.4000, -83.871
1252.5000, -81.954
1252.6000,-210.000
1252.7000, -85.267
1252.8000, -81.088
1252.9000, -81.699
1253.0000, -97.887
1253.1000, -82.813
1253.2000, -80.609
1253.3000,-210.000
1253.4000, -82.267
1253.5000, -81.900
1253.6000, -86.735
1253.7000, -83.075
1253.8000, -85.653
1253.9000, -81.266
1254.0000, -83.833
1254.1000, -84.488
1254.2000, -83.541
1254.3000, -86.687
1254.4000, -83.957
1254.5000, -81.236
1254.6000, -83.226
1254.7000, -87.079
1254.8000, -86.616
1254.9000, -83.619
1255.0000, -84.022
1255.1000, -86.849
1255.2000, -79.035
1255.3000, -88.990
1255.4000, -99.516
1255.5000, -85.097
1255.6000, -83.398
1255.7000, -80.824
1255.8000, -80.956
1255.9000, -86.491
1256.0000, -83.982
1256.1000, -82.872
1256.2000, -89.608
1256.3000, -83.311
1256.4000, -85.649
1256.5000, -85.488
1256.6000, -83.321
1256.7000, -85.418
1256.8000, -84.554
1256.9000, -88.820
1257.0000, -92.074
1257.1000, -82.130
1257.2000, -82.992
1257.3000, -81.333
1257.4000,-210.000
1257.5000, -86.543
1257.6000, -78.138
1257.7000, -88.402
1257.8000,-112.458
1257.9000, -83.550
1258.0000, -95.406
1258.1000, -81.906
1258.2000, -84.199
1258.3000,-210.000
1258.4000, -82.709
1258.5000, -82.021
1258.6000, -82.655
1258.7000, -81.461
1258.8000, -85.101
1258.9000, -80.719
1259.0000, -83.694
1259.1000, -81.855
1259.2000,-210.000
1259.3000, -84.154
1259.4000, -80.443
1259.5000, -83.723
1259.6000, -82.466
1259.7000, -83.327
1259.8000, -84.409
1259.9000, -82.362
1260.0000, -81.844
1260.1000, -82.822
1260.2000, -84.212
1260.3000, -82.377
1260.4000, -81.922
1260.5000, -88.529
1260.6000, -84.309
1260.7000, -84.800
1260.8000, -81.114
1260.9000, -83.271
1261.0000, -81.321
1261.1000, -82.965
1261.2000, -82.708
1261.3000, -82.303
1261.4000, -81.442
1261.5000, -99.149
1261.6000, -86.763
1261.7000, -83.211
1261.8000, -83.077
1261.9000, -87.031
1262.0000, -83.274
1262.1000, -85.362
1262.2000, -85.802
1262.3000, -81.475
1262.4000, -83.332
1262.5000, -86.747
1262.6000, -84.366
1262.7000, -82.446
1262.8000, -82.300
1262.9000, -85.793
1263.0000, -85.377
1263.1000, -82.982
1263.2000, -82.916
1263.3000, -80.766
1263.4000, -84.141
1263.5000, -83.273
1263.6000, -87.657
1263.7000, -81.919
1263.8000, -83.729
1263.9000, -81.492
1264.0000, -82.275
1264.1000,-210.000
1264.2000, -84.109
1264.3000, -84.258
1264.4000, -84.455
1264.5000, -81.833
1264.6000, -87.392
1264.7000, -85.522
1264.8000, -81.726
1264.9000, -81.889
1265.0000, -84.382
1265.1000,-103.126
1265.2000, -86.475
1265.3000, -83.097
1265.4000, -81.938
1265.5000, -82.203
1265.6000, -81.380
1265.7000,-210.000
1265.8000, -78.545
1265.9000, -83.012
1266.0000,-210.000
1266.1000, -82.641
1266.2000, -85.385
1266.3000, -81.899
1266.4000, -81.606
1266.5000, -80.764
1266.6000, -98.242
1266.7000, -81.086
1266.8000,-210.000
1266.9000, -80.571
1267.0000, -81.613
1267.1000,-210.000
1267.2000, -82.465
1267.3000, -88.658
1267.4000, -82.810
1267.5000, -87.739
1267.6000, -82.873
1267.7000, -82.802
1267.8000, -85.121
1267.9000, -83.431
1268.0000, -86.516
1268.1000, -83.170
1268.2000,-210.000
1268.3000, -78.536
1268.4000, -80.612
1268.5000, -81.809
1268.6000, -85.360
1268.7000, -85.429
1268.8000, -82.497
1268.9000, -80.629
1269.0000, -83.568
1269.1000, -90.937
1269.2000,-210.000
1269.3000, -79.033
1269.4000, -82.384
1269.5000,-210.000
1269.6000, -84.586
1269.7000, -81.101
1269.8000, -88.231
1269.9000, -84.729
1270.0000, -85.698
1270.1000, -81.554
1270.2000, -87.333
1270.3000, -80.959
1270.4000, -88.157
1270.5000, -82.210
1270.6000, -88.288
1270.7000, -81.458
1270.8000,-210.000
1270.9000, -81.508
1271.0000, -89.918
1271.1000, -81.570
1271.2000, -86.832
1271.3000, -81.221
1271.4000, -81.728
1271.5000, -82.392
1271.6000, -85.007
1271.7000, -95.537
1271.8000, -82.690
1271.9000,-117.636
1272.0000, -81.577
1272.1000, -90.453
1272.2000, -83.509
1272.3000, -83.238
1272.4000, -85.791
1272.5000, -84.221
1272.6000, -82.346
1272.7000, -84.208
1272.8000, -82.508
1272.9000, -86.579
1273.0000, -83.360
1273.1000, -84.976
1273.2000, -84.432
1273.3000, -84.138
1273.4000, -83.833
1273.5000, -81.341
1273.6000, -86.514
1273.7000, -84.701
1273.8000, -87.299
1273.9000, -85.771
1274.0000, -83.607
1274.1000, -83.436
1274.2000, -82.442
1274.3000, -83.238
1274.4000, -84.075
1274.5000, -82.772
1274.6000, -91.484
1274.7000, -85.080
1274.8000, -81.280
1274.9000, -89.702
1275.0000, -83.266
1275.1000, -87.142
1275.2000, -85.175
1275.3000, -83.357
1275.4000, -83.726
1275.5000, -82.410
1275.6000, -82.091
1275.7000,-210.000
1275.8000, -84.750
1275.9000, -85.342
1276.0000, -82.577
1276.1000, -83.299
1276.2000, -85.961
1276.3000, -90.297
1276.4000, -83.451
1276.5000, -82.425
1276.6000, -83.810
1276.7000, -83.748
1276.8000, -85.703
1276.9000, -84.236
1277.0000, -83.118
1277.1000, -84.536
1277.2000, -83.825
1277.3000, -85.992
1277.4000, -81.181
1277.5000, -83.878
1277.6000, -85.583
1277.7000, -83.048
1277.8000, -86.107
1277.9000, -84.244
1278.0000, -82.449
1278.1000, -86.420
1278.2000, -84.612
1278.3000, -82.068
1278.4000, -82.925
1278.5000,-210.000
1278.6000, -89.705
1278.7000, -81.405
1278.8000, -85.380
1278.9000, -87.474
1279.0000, -85.802
1279.1000, -80.623
1279.2000, -87.095
1279.3000,-210.000
1279.4000, -84.485
1279.5000, -84.100
1279.6000,-210.000
1279.7000, -82.584
1279.8000, -82.532
1279.9000, -83.372
1280.0000,-210.000
1280.1000, -88.561
1280.2000, -82.781
1280.3000, -84.659
1280.4000, -84.449
1280.5000, -84.381
1280.6000, -83.359
1280.7000, -84.130
1280.8000, -84.654
1280.9000, -81.027
1281.0000, -87.470
1281.1000, -84.131
1281.2000, -82.375
1281.3000, -84.551
1281.4000, -84.395
1281.5000, -81.134
1281.6000, -83.713
1281.7000, -84.795
1281.8000, -81.314
1281.9000, -80.532
1282.0000, -84.294
1282.1000,-210.000
1282.2000, -92.454
1282.3000, -80.897
1282.4000, -82.050
1282.5000, -85.332
1282.6000, -87.242
1282.7000, -83.864
1282.8000, -81.686
1282.9000, -84.768
1283.0000, -79.118
1283.1000,-210.000
1283.2000,-210.000
1283.3000, -80.001
1283.4000, -80.889
1283.5000,-210.000
1283.6000, -82.251
1283.7000, -84.026
1283.8000, -83.896
1283.9000, -83.361
1284.0000, -84.556
1284.1000, -79.350
1284.2000, -83.085
1284.3000, -89.302
1284.4000, -83.903
1284.5000,-210.000
1284.6000, -85.680
1284.7000, -85.668
1284.8000, -85.801
1284.9000, -87.986
1285.0000, -83.162
1285.1000, -85.868
1285.2000, -82.558
1285.3000, -85.299
1285.4000, -83.896
1285.5000, -81.993
1285.6000, -83.294
1285.7000, -83.456
1285.8000, -86.096
1285.9000, -84.331
1286.0000, -84.985
1286.1000, -80.891
1286.2000, -85.460
1286.3000, -88.207
1286.4000, -81.762
1286.5000, -87.560
1286.6000, -82.155
1286.7000, -87.225
1286.8000, -83.752
1286.9000, -83.990
1287.0000, -85.109
1287.1000, -82.292
1287.2000, -78.601
1287.3000, -86.173
1287.4000,-210.000
1287.5000, -80.569
1287.6000, -82.782
1287.7000, -97.543
1287.8000, -83.138
1287.9000, -80.633
1288.0000, -85.253
1288.1000, -88.262
1288.2000, -84.151
1288.3000, -83.686
1288.4000, -82.449
1288.5000, -80.452
1288.6000, -82.993
1288.7000, -82.889
1288.8000, -83.486
1288.9000, -83.193
1289.0000, -88.494
1289.1000, -82.431
1289.2000, -83.363
1289.3000, -83.695
1289.4000, -86.695
1289.5000, -82.710
1289.6000, -97.559
1289.7000, -83.968
1289.8000, -81.982
1289.9000, -85.726
1290.0000, -85.240
1290.1000, -82.565
1290.2000, -83.735
1290.3000, -91.625
1290.4000, -83.429
1290.5000, -80.684
1290.6000, -83.746
1290.7000, -85.406
1290.8000, -83.533
1290.9000, -87.277
1291.0000, -81.796
1291.1000, -83.365
1291.2000, -79.525
1291.3000,-210.000
1291.4000, -83.916
1291.5000, -84.547
1291.6000,-210.000
1291.7000, -82.467
1291.8000, -89.531
1291.9000, -81.955
1292.0000, -84.434
1292.1000, -83.266
1292.2000, -83.258
1292.3000, -89.070
1292.4000, -83.925
1292.5000, -86.515
1292.6000, -82.811
1292.7000, -83.210
1292.8000, -83.821
1292.9000, -82.702
1293.0000, -85.540
1293.1000, -82.077
1293.2000, -83.836
1293.3000, -92.238
1293.4000, -82.961
1293.5000, -85.630
1293.6000, -81.574
1293.7000, -86.262
1293.8000, -81.939
1293.9000, -88.602
1294.0000, -84.011
1294.1000, -83.047
1294.2000, -78.814
1294.3000, -85.208
1294.4000, -88.301
1294.5000, -83.668
1294.6000, -80.973
1294.7000,-210.000
1294.8000, -80.765
1294.9000, -84.877
1295.0000, -88.437
1295.1000, -84.553
1295.2000, -82.944
1295.3000, -83.040
1295.4000, -82.167
1295.5000, -81.725
1295.6000, -85.210
1295.7000, -84.340
1295.8000, -83.146
1295.9000, -96.537
1296.0000, -82.856
1296.1000, -92.114
1296.2000, -81.602
1296.3000,-210.000
1296.4000, -82.058
1296.5000, -81.611
1296.6000, -80.446
1296.7000,-210.000
1296.8000, -85.476
1296.9000, -81.205
1297.0000,-210.000
1297.1000, -81.596
1297.2000, -83.255
1297.3000, -85.489
1297.4000, -86.859
1297.5000, -84.984
1297.6000, -84.124
1297.7000, -85.951
1297.8000, -84.668
1297.9000, -80.692
1298.0000, -83.485
1298.1000, -82.370
1298.2000, -85.114
1298.3000, -87.475
1298.4000, -88.433
1298.5000, -83.774
1298.6000, -81.036
1298.7000, -83.002
1298.8000, -89.453
1298.9000, -85.050
1299.0000, -83.893
1299.1000, -81.937
1299.2000, -88.285
1299.3000, -81.005
1299.4000,-210.000
1299.5000, -81.902
1299.6000, -83.285
1299.7000, -85.671
1299.8000, -86.448
1299.9000, -80.592
1300.0000, -85.021
1300.1000, -95.450
1300.2000, -82.456
1300.3000, -79.934
1300.4000, -88.411
1300.5000, -83.809
1300.6000, -86.545
1300.7000, -80.876
1300.8000, -81.245
1300.9000, -89.613
1301.0000, -87.644
1301.1000, -82.624
1301.2000, -83.158
1301.3000, -85.279
1301.4000,-210.000
1301.5000, -84.092
1301.6000,-210.000
1301.7000, -78.618
1301.8000, -83.831
1301.9000, -85.703
1302.0000,-210.000
1302.1000, -83.321
1302.2000, -84.240
1302.3000, -83.065
1302.4000, -85.639
1302.5000, -83.224
1302.6000, -86.261
1302.7000, -83.832
1302.8000, -84.281
1302.9000, -89.078
1303.0000, -83.613
1303.1000, -84.943
1303.2000, -84.971
1303.3000, -83.370
1303.4000, -81.287
1303.5000, -83.580
1303.6000, -88.105
1303.7000, -83.531
1303.8000, -83.156
1303.9000, -81.860
1304.0000, -85.713
1304.1000, -91.526
1304.2000, -80.595
1304.3000, -87.285
1304.4000, -84.401
1304.5000, -83.600
1304.6000, -82.508
1304.7000, -83.392
1304.8000, -81.374
1304.9000, -82.144
1305.0000, -89.469
1305.1000, -83.010
1305.2000, -86.070
1305.3000, -83.713
1305.4000, -85.675
1305.5000, -81.770
1305.6000,-210.000
1305.7000, -82.583
1305.8000, -86.523
1305.9000, -81.553
1306.0000, -82.924
1306.1000, -83.599
1306.2000, -85.211
1306.3000, -82.203
1306.4000, -83.682
1306.5000, -86.033
1306.6000, -81.279
1306.7000, -81.804
1306.8000, -85.355
1306.9000, -83.899
1307.0000,-210.000
1307.1000, -84.664
1307.2000, -83.013
1307.3000, -80.217
1307.4000, -86.931
1307.5000, -85.821
1307.6000, -82.124
1307.7000, -84.966
1307.8000, -82.501
1307.9000, -84.557
1308.0000,-210.000
1308.1000, -81.493
1308.2000, -87.443
1308.3000, -84.213
1308.4000, -83.531
1308.5000, -84.677
1308.6000, -82.415
1308.7000, -83.554
1308.8000, -81.689
1308.9000,-210.000
1309.0000, -83.173
1309.1000, -84.264
1309.2000, -81.441
1309.3000,-210.000
1309.4000, -83.927
1309.5000, -85.404
1309.6000, -82.359
1309.7000, -88.829
1309.8000, -83.097
1309.9000, -82.160
1310.0000, -84.071
1310.1000, -86.896
1310.2000, -83.573
1310.3000, -82.742
1310.4000, -88.322
1310.5000, -81.956
1310.6000, -80.721
1310.7000, -83.455
1310.8000, -83.840
1310.9000, -84.036
1311.0000, -82.388
1311.1000, -86.971
1311.2000, -83.470
1311.3000, -82.819
1311.4000, -82.919
1311.5000, -83.473
1311.6000, -82.762
1311.7000, -85.728
1311.8000, -83.677
1311.9000, -81.985
1312.0000, -86.239
1312.1000, -80.530
1312.2000, -88.664
1312.3000,-210.000
1312.4000, -80.546
1312.5000, -90.911
1312.6000, -82.605
1312.7000, -86.882
1312.8000, -82.355
1312.9000, -86.675
1313.0000, -80.929
1313.1000, -85.731
1313.2000, -93.797
1313.3000, -82.283
1313.4000, -82.785
1313.5000, -81.630
1313.6000,-210.000
1313.7000, -79.443
1313.8000, -85.316
1313.9000, -92.628
1314.0000,-210.000
1314.1000, -85.088
1314.2000, -85.160
1314.3000, -81.867
1314.4000, -88.975
1314.5000, -84.737
1314.6000, -87.248
1314.7000, -84.016
1314.8000, -84.978
1314.9000, -89.667
1315.0000, -82.358
1315.1000, -84.268
1315.2000, -82.576
1315.3000, -86.873
1315.4000, -79.526
1315.5000, -89.690
1315.6000, -81.062
1315.7000, -84.346
1315.8000, -84.002
1315.9000, -82.113
1316.0000, -84.249
1316.1000, -85.577
1316.2000, -89.673
1316.3000, -81.303
1316.4000, -95.319
1316.5000, -80.389
1316.6000, -81.525
1316.7000, -84.605
1316.8000, -81.649
1316.9000, -81.699
1317.0000, -94.136
1317.1000, -82.585
1317.2000,-210.000
1317.3000, -84.201
1317.4000, -84.274
1317.5000, -85.693
1317.6000, -82.207
1317.7000, -83.620
1317.8000, -84.579
1317.9000, -85.704
1318.0000, -83.733
1318.1000, -85.712
1318.2000, -82.937
1318.3000, -80.537
1318.4000, -83.138
1318.5000, -83.900
1318.6000, -83.748
1318.7000, -80.286
1318.8000, -94.489
1318.9000,-210.000
1319.0000, -81.239
1319.1000, -83.623
1319.2000, -84.197
1319.3000, -82.573
1319.4000, -81.842
1319.5000, -85.977
1319.6000, -83.452
1319.7000, -84.954
1319.8000, -82.931
1319.9000, -82.732
1320.0000, -85.291
1320.1000, -87.778
1320.2000, -85.203
1320.3000, -83.414
1320.4000, -86.054
1320.5000, -79.441
1320.6000, -83.787
1320.7000, -80.953
1320.8000,-210.000
1320.9000, -81.710
1321.0000, -84.861
1321.1000, -85.680
1321.2000, -84.004
1321.3000, -80.766
1321.4000, -83.268
1321.5000, -88.533
1321.6000, -84.583
1321.7000, -84.510
1321.8000, -81.152
1321.9000, -81.543
1322.0000, -84.171
1322.1000, -84.830
1322.2000, -80.390
1322.3000, -81.420
1322.4000, -90.921
1322.5000,-210.000
1322.6000, -82.830
1322.7000, -81.361
1322.8000, -82.892
1322.9000, -82.819
1323.0000,-210.000
1323.1000, -83.302
1323.2000, -82.780
1323.3000, -85.685
1323.4000, -85.105
1323.5000, -93.229
1323.6000, -81.299
1323.7000, -81.309
1323.8000, -83.759
1323.9000, -85.445
1324.0000, -84.413
1324.1000, -83.926
1324.2000, -88.135
1324.3000, -85.612
1324.4000, -81.742
1324.5000, -81.407
1324.6000, -88.730
1324.7000, -85.324
1324.8000, -81.757
1324.9000, -82.649
1325.0000, -85.001
1325.1000, -93.409
1325.2000, -83.059
1325.3000, -99.361
1325.4000, -81.927
1325.5000,-210.000
1325.6000, -83.446
1325.7000, -82.783
1325.8000, -81.865
1325.9000, -82.309
1326.0000, -82.557
1326.1000, -85.837
1326.2000, -81.353
1326.3000, -82.114
1326.4000, -83.736
1326.5000,-210.000
1326.6000, -86.604
1326.7000, -82.277
1326.8000, -81.598
1326.9000, -90.951
1327.0000, -86.390
1327.1000, -83.932
1327.2000, -82.814
1327.3000, -82.203
1327.4000, -81.933
1327.5000, -91.058
1327.6000, -81.397
1327.7000, -92.948
1327.8000, -86.075
1327.9000, -82.305
1328.0000, -87.917
1328.1000, -85.490
1328.2000, -81.859
1328.3000,-210.000
1328.4000, -85.584
1328.5000, -81.333
1328.6000, -86.590
1328.7000, -85.409
1328.8000, -82.856
1328.9000, -83.523
1329.0000, -83.215
1329.1000, -82.119
1329.2000, -90.664
1329.3000, -87.467
1329.4000, -83.033
1329.5000, -81.836
1329.6000, -81.673
1329.7000, -84.630
1329.8000, -85.898
1329.9000, -86.391
1330.0000, -84.423
1330.1000, -83.842
1330.2000, -82.194
1330.3000, -84.346
1330.4000, -83.305
1330.5000, -84.397
1330.6000, -81.775
1330.7000, -83.597
1330.8000, -86.120
1330.9000, -86.799
1331.0000, -82.875
1331.1000, -85.183
1331.2000, -81.897
1331.3000, -81.213
1331.4000, -95.709
1331.5000, -86.043
1331.6000, -82.900
1331.7000, -83.030
1331.8000, -85.033
1331.9000, -86.686
1332.0000, -81.951
1332.1000, -85.241
1332.2000, -82.804
1332.3000, -84.437
1332.4000, -83.906
1332.5000, -84.957
1332.6000, -84.799
1332.7000, -81.139
1332.8000, -81.639
1332.9000, -84.175
1333.0000, -83.857
1333.1000, -81.509
1333.2000, -98.219
1333.3000, -84.690
1333.4000, -91.103
1333.5000, -84.427
1333.6000, -80.665
1333.7000, -87.305
1333.8000, -82.626
1333.9000, -83.623
1334.0000, -80.436
1334.1000, -82.868
1334.2000, -86.458
1334.3000, -85.069
1334.4000, -83.158
1334.5000,-210.000
1334.6000, -78.502
1334.7000, -86.144
1334.8000, -81.966
1334.9000, -84.258
1335.0000, -82.450
1335.1000, -83.107
1335.2000, -82.576
1335.3000, -81.563
1335.4000, -84.572
1335.5000, -81.997
1335.6000, -85.294
1335.7000, -83.120
1335.8000, -84.046
1335.9000, -86.968
1336.0000, -85.075
1336.1000, -83.477
1336.2000, -82.623
1336.3000, -83.727
1336.4000, -83.032
1336.5000, -87.272
1336.6000, -82.112
1336.7000, -82.993
1336.8000, -83.622
1336.9000, -84.018
1337.0000, -85.387
1337.1000, -83.420
1337.2000, -83.034
1337.3000, -82.278
1337.4000, -85.742
1337.5000, -82.873
1337.6000, -81.803
1337.7000, -81.840
1337.8000, -83.610
1337.9000, -82.854
1338.0000, -85.367
1338.1000, -83.050
1338.2000, -83.949
1338.3000, -90.712
1338.4000, -82.392
1338.5000, -83.776
1338.6000, -84.276
1338.7000, -84.326
1338.8000, -83.598
1338.9000, -83.388
1339.0000, -82.955
1339.1000, -83.531
1339.2000, -85.302
1339.3000, -88.161
1339.4000, -82.553
1339.5000, -81.725
1339.6000, -82.914
1339.7000, -85.981
1339.8000, -81.245
1339.9000, -81.753
1340.0000, -83.739
1340.1000, -88.714
1340.2000, -83.050
1340.3000, -83.469
1340.4000, -83.535
1340.5000, -85.273
1340.6000, -83.892
1340.7000, -85.689
1340.8000, -82.152
1340.9000, -85.947
1341.0000, -83.981
1341.1000, -82.908
1341.2000, -84.403
1341.3000, -83.962
1341.4000, -86.110
1341.5000, -90.901
1341.6000, -87.500
1341.7000, -81.889
1341.8000, -86.079
1341.9000, -83.951
1342.0000, -84.529
1342.1000, -81.321
1342.2000, -82.838
1342.3000, -84.155
1342.4000, -85.683
1342.5000, -82.629
1342.6000, -85.709
1342.7000, -81.739
1342.8000, -82.628
1342.9000, -85.111
1343.0000, -83.159
1343.1000, -81.304
1343.2000, -82.609
1343.3000, -82.684
1343.4000, -83.878
1343.5000, -88.664
1343.6000, -84.232
1343.7000, -88.386
1343.8000, -82.722
1343.9000, -85.400
1344.0000, -81.102
1344.1000, -82.079
1344.2000, -86.663
1344.3000, -89.811
1344.4000, -83.022
1344.5000, -89.160
1344.6000, -81.951
1344.7000,-105.835
1344.8000, -82.307
1344.9000, -82.787
1345.0000, -83.585
1345.1000, -85.101
1345.2000, -89.991
1345.3000, -80.677
1345.4000, -88.724
1345.5000, -84.022
1345.6000, -82.509
1345.7000, -83.629
1345.8000, -85.544
1345.9000, -84.361
1346.0000, -81.733
1346.1000, -83.126
1346.2000, -86.460
1346.3000, -82.146
1346.4000, -88.391
1346.5000, -82.768
1346.6000, -87.768
1346.7000, -85.902
1346.8000, -82.687
1346.9000, -82.341
1347.0000, -84.753
1347.1000, -81.710
1347.2000, -81.934
1347.3000, -85.955
1347.4000, -84.382
1347.5000, -81.173
1347.6000, -81.674
1347.7000,-210.000
1347.8000, -78.545
1347.9000,-210.000
1348.0000, -87.661
1348.1000,-210.000
1348.2000, -81.079
1348.3000, -85.104
1348.4000, -80.852
1348.5000, -86.761
1348.6000, -84.656
1348.7000, -85.563
1348.8000, -81.690
1348.9000, -81.636
1349.0000, -81.767
1349.1000, -84.727
1349.2000, -89.168
1349.3000, -96.356
1349.4000, -83.334
1349.5000, -84.299
1349.6000, -85.303
1349.7000, -86.032
1349.8000, -79.543
1349.9000, -82.240
1350.0000, -83.089
1350.1000, -84.849
1350.2000, -83.097
1350.3000, -84.678
1350.4000, -84.428
1350.5000, -80.450
1350.6000,-210.000
1350.7000, -84.478
1350.8000, -86.093
1350.9000, -84.468
1351.0000, -82.287
1351.1000, -81.992
1351.2000,-210.000
1351.3000, -81.355
1351.4000, -83.447
1351.5000, -91.577
1351.6000, -90.212
1351.7000, -83.805
1351.8000, -84.157
1351.9000, -83.185
1352.0000, -83.934
1352.1000, -83.846
1352.2000, -90.964
1352.3000, -83.456
1352.4000, -82.448
1352.5000, -93.493
1352.6000, -81.567
1352.7000, -81.785
1352.8000, -82.772
1352.9000, -82.517
1353.0000, -83.595
1353.1000, -84.925
1353.2000, -87.295
1353.3000, -81.927
1353.4000, -83.617
1353.5000, -82.942
1353.6000, -83.487
1353.7000, -87.757
1353.8000, -82.458
1353.9000, -82.152
1354.0000, -82.655
1354.1000, -84.521
1354.2000, -84.958
1354.3000, -84.332
1354.4000, -82.763
1354.5000, -80.988
1354.6000, -84.534
1354.7000, -87.181
1354.8000, -81.738
1354.9000, -84.068
1355.0000,-210.000
1355.1000, -79.549
1355.2000, -81.532
1355.3000,-210.000
1355.4000, -83.221
1355.5000, -83.426
1355.6000, -83.632
1355.7000, -87.967
1355.8000, -84.337
1355.9000, -85.732
1356.0000, -82.653
1356.1000, -85.397
1356.2000, -83.398
1356.3000, -85.487
1356.4000, -86.792
1356.5000, -82.628
1356.6000, -85.468
1356.7000, -86.325
1356.8000, -83.498
1356.9000, -81.533
1357.0000, -84.592
1357.1000, -82.049
1357.2000, -83.072
1357.3000, -83.200
1357.4000, -86.885
1357.5000, -84.353
1357.6000, -83.166
1357.7000, -88.820
1357.8000, -82.967
1357.9000, -83.641
1358.0000, -81.647
1358.1000, -86.591
1358.2000, -85.650
1358.3000, -83.983
1358.4000, -83.421
1358.5000, -81.154
1358.6000, -82.639
1358.7000,-210.000
1358.8000, -86.978
1358.9000, -82.364
1359.0000, -82.796
1359.1000, -86.392
1359.2000, -83.389
1359.3000, -81.802
1359.4000, -83.445
1359.5000, -84.535
1359.6000, -84.481
1359.7000, -84.705
1359.8000, -83.620
1359.9000, -88.580
1360.0000, -82.516
1360.1000, -90.923
1360.2000, -83.080
1360.3000, -82.642
1360.4000, -83.708
1360.5000, -83.478
1360.6000, -83.923
1360.7000, -82.874
1360.8000, -85.590
1360.9000, -85.626
1361.0000, -82.712
1361.1000, -84.395
1361.2000, -84.092
1361.3000, -85.781
1361.4000, -85.349
1361.5000, -82.481
1361.6000, -83.513
1361.7000, -84.075
1361.8000, -84.652
1361.9000, -85.532
1362.0000, -83.185
1362.1000, -84.448
1362.2000, -83.969
1362.3000, -83.481
1362.4000, -83.338
1362.5000, -78.329
1362.6000, -82.763
1362.7000,-210.000
1362.8000, -84.345
1362.9000, -85.868
1363.0000, -82.653
1363.1000, -81.578
1363.2000, -84.226
1363.3000, -83.162
1363.4000, -82.289
1363.5000, -84.764
1363.6000, -84.862
1363.7000, -81.921
1363.8000,-210.000
1363.9000, -77.626
1364.0000,-210.000
1364.1000, -83.307
1364.2000, -83.547
1364.3000, -85.745
1364.4000, -86.739
1364.5000, -89.199
1364.6000, -83.011
1364.7000, -85.821
1364.8000, -83.276
1364.9000,-210.000
1365.0000, -81.050
1365.1000, -84.047
1365.2000, -83.581
1365.3000, -81.038
1365.4000, -83.592
1365.5000, -87.032
1365.6000, -84.252
1365.7000, -82.357
1365.8000, -82.878
1365.9000, -84.497
1366.0000, -82.224
1366.1000, -83.172
1366.2000, -83.324
1366.3000, -83.083
1366.4000, -80.880
1366.5000,-101.992
1366.6000, -81.675
1366.7000, -88.949
1366.8000, -85.294
1366.9000, -80.921
1367.0000, -81.333
1367.1000, -83.189
1367.2000,-210.000
1367.3000, -84.976
1367.4000, -79.412
1367.5000,-210.000
1367.6000, -79.271
1367.7000,-210.000
1367.8000, -81.735
1367.9000,-210.000
1368.0000, -81.851
1368.1000, -81.868
1368.2000, -84.100
1368.3000, -85.508
1368.4000, -81.848
1368.5000, -83.973
1368.6000, -83.915
1368.7000, -89.275
1368.8000, -83.565
1368.9000, -88.355
1369.0000, -84.111
1369.1000, -82.183
1369.2000, -82.167
1369.3000, -82.417
1369.4000,-210.000
1369.5000, -82.691
1369.6000, -82.348
1369.7000, -81.500
1369.8000, -94.805
1369.9000, -83.362
1370.0000, -84.905
1370.1000, -81.543
1370.2000, -82.734
1370.3000, -84.843
1370.4000, -82.934
1370.5000, -81.567
1370.6000, -87.878
1370.7000,-210.000
1370.8000, -83.794
1370.9000, -86.040
1371.0000, -83.726
1371.1000, -82.531
1371.2000, -82.771
1371.3000, -81.425
1371.4000, -88.195
1371.5000, -83.191
1371.6000, -82.293
1371.7000, -85.816
1371.8000, -86.079
1371.9000, -85.807
1372.0000, -80.559
1372.1000, -80.557
1372.2000, -89.777
1372.3000,-210.000
1372.4000, -81.382
1372.5000, -87.425
1372.6000, -83.362
1372.7000, -83.882
1372.8000, -82.381
1372.9000, -88.486
1373.0000, -83.760
1373.1000, -84.233
1373.2000, -83.813
1373.3000, -85.491
1373.4000, -79.190
1373.5000, -88.422
1373.6000, -82.891
1373.7000, -86.449
1373.8000,-210.000
1373.9000, -88.070
1374.0000, -82.533
1374.1000, -80.742
1374.2000, -83.658
1374.3000, -87.892
1374.4000, -81.835
1374.5000, -84.351
1374.6000, -82.139
1374.7000,-210.000
1374.8000, -82.573
1374.9000,-210.000
1375.0000, -84.452
1375.1000, -89.659
1375.2000, -85.302
1375.3000, -82.850
1375.4000, -82.432
1375.5000, -84.911
1375.6000, -86.428
1375.7000, -84.301
1375.8000, -83.411
1375.9000, -84.907
1376.0000, -85.981
1376.1000, -84.274
1376.2000, -83.511
1376.3000, -82.110
1376.4000, -87.262
1376.5000, -88.518
1376.6000, -81.599
1376.7000, -83.490
1376.8000, -86.415
1376.9000, -84.221
1377.0000, -86.627
1377.1000, -83.739
1377.2000, -82.225
1377.3000, -86.484
1377.4000, -84.030
1377.5000, -83.185
1377.6000, -86.298
1377.7000, -84.597
1377.8000, -84.908
1377.9000, -82.508
1378.0000, -84.484
1378.1000, -87.515
1378.2000, -87.134
1378.3000, -83.905
1378.4000, -86.818
1378.5000, -82.156
1378.6000, -84.513
1378.7000, -84.144
1378.8000, -83.570
1378.9000, -82.882
1379.0000, -84.326
1379.1000, -84.900
1379.2000, -82.466
1379.3000, -84.655
1379.4000, -85.764
1379.5000, -87.969
1379.6000, -82.373
1379.7000, -81.459
1379.8000, -83.262
1379.9000, -82.944
1380.0000, -83.728
1380.1000, -82.709
1380.2000, -83.980
1380.3000, -83.271
1380.4000, -85.361
1380.5000, -83.226
1380.6000, -87.594
1380.7000, -89.435
1380.8000, -81.556
1380.9000, -80.955
1381.0000,-210.000
1381.1000, -81.102
1381.2000, -89.158
1381.3000, -82.944
1381.4000, -81.788
1381.5000, -85.079
1381.6000, -83.021
1381.7000, -82.379
1381.8000, -83.590
1381.9000, -84.894
1382.0000, -87.636
1382.1000, -81.528
1382.2000, -82.982
1382.3000, -84.234
1382.4000, -83.586
1382.5000, -81.643
1382.6000, -89.070
1382.7000, -85.800
1382.8000, -81.680
1382.9000, -83.693
1383.0000, -83.177
1383.1000, -83.319
1383.2000, -82.819
1383.3000, -89.862
1383.4000, -83.232
1383.5000, -82.026
1383.6000, -86.614
1383.7000, -81.379
1383.8000, -83.233
1383.9000,-210.000
1384.0000, -79.707
1384.1000, -89.708
1384.2000, -85.040
1384.3000, -81.983
1384.4000, -86.277
1384.5000, -84.423
1384.6000, -84.992
1384.7000, -82.195
1384.8000, -82.483
1384.9000, -86.988
1385.0000, -83.018
1385.1000, -84.069
1385.2000, -85.921
1385.3000, -80.253
1385.4000, -84.437
1385.5000,-210.000
1385.6000, -84.051
1385.7000,-210.000
1385.8000, -82.763
1385.9000, -82.494
1386.0000, -87.529
1386.1000, -83.603
1386.2000, -84.501
1386.3000, -84.089
1386.4000, -81.398
1386.5000, -83.709
1386.6000, -94.011
1386.7000, -83.457
1386.8000, -84.104
1386.9000, -83.543
1387.0000, -79.536
1387.1000, -88.548
1387.2000,-210.000
1387.3000, -89.115
1387.4000, -84.045
1387.5000, -83.251
1387.6000, -80.341
1387.7000, -82.868
1387.8000, -87.010
1387.9000, -83.885
1388.0000, -87.551
1388.1000, -80.578
1388.2000,-210.000
1388.3000, -85.677
1388.4000, -82.064
1388.5000, -85.732
1388.6000, -82.285
1388.7000, -84.549
1388.8000, -83.762
1388.9000, -82.902
1389.0000, -83.767
1389.1000, -86.309
1389.2000, -84.068
1389.3000, -84.847
1389.4000, -83.676
1389.5000, -84.709
1389.6000, -83.507
1389.7000, -83.183
1389.8000, -83.246
1389.9000, -82.452
1390.0000, -84.087
1390.1000, -83.243
1390.2000, -84.343
1390.3000, -83.074
1390.4000, -83.260
1390.5000,-210.000
1390.6000, -79.691
1390.7000,-210.000
1390.8000, -80.902
1390.9000, -83.188
1391.0000, -81.190
1391.1000, -86.204
1391.2000,-210.000
1391.3000, -84.456
1391.4000, -85.632
1391.5000, -83.622
1391.6000, -82.761
1391.7000, -84.409
1391.8000, -82.383
1391.9000, -83.669
1392.0000,-210.000
1392.1000, -80.315
1392.2000, -85.638
1392.3000, -83.991
1392.4000, -88.737
1392.5000, -84.858
1392.6000, -83.086
1392.7000, -83.321
1392.8000, -86.016
1392.9000, -83.763
1393.0000, -82.059
1393.1000, -83.857
1393.2000, -87.119
1393.3000, -82.617
1393.4000, -83.645
1393.5000, -84.694
1393.6000, -87.029
1393.7000, -84.055
1393.8000, -81.238
1393.9000, -84.689
1394.0000, -85.005
1394.1000, -85.881
1394.2000, -80.968
1394.3000, -80.923
1394.4000, -80.736
1394.5000, -99.309
1394.6000,-210.000
1394.7000, -78.197
1394.8000, -85.177
1394.9000,-210.000
1395.0000, -83.372
1395.1000, -81.791
1395.2000, -82.217
1395.3000, -83.393
1395.4000, -81.427
1395.5000,-210.000
1395.6000, -83.249
1395.7000,-210.000
1395.8000, -81.561
1395.9000, -83.084
1396.0000, -83.856
1396.1000, -84.786
1396.2000, -81.750
1396.3000, -82.588
1396.4000, -82.508
1396.5000, -81.232
1396.6000, -82.098
1396.7000,-101.422
1396.8000, -83.346
1396.9000, -85.605
1397.0000, -85.771
1397.1000, -86.606
1397.2000, -83.559
1397.3000, -83.464
1397.4000, -81.751
1397.5000, -82.982
1397.6000, -82.098
1397.7000, -84.170
1397.8000, -80.558
1397.9000, -95.203
1398.0000, -83.725
1398.1000, -83.040
1398.2000, -85.664
1398.3000, -89.561
1398.4000, -83.349
1398.5000, -83.670
1398.6000, -81.738
1398.7000, -84.963
1398.8000, -84.096
1398.9000, -81.740
1399.0000, -82.600
1399.1000, -83.656
1399.2000, -79.948
1399.3000, -86.908
1399.4000, -81.765
1399.5000, -85.614
1399.6000, -80.259
1399.7000, -84.517
1399.8000, -84.950
1399.9000, -90.239
1400.0000, -82.464
1400.1000, -80.902
1400.2000, -81.866
1400.3000,-210.000
1400.4000, -77.839
1400.5000, -91.958
1400.6000, -86.411
1400.7000, -82.355
1400.8000, -82.525
1400.9000, -82.181
1401.0000, -82.374
1401.1000, -85.174
1401.2000, -85.376
1401.3000, -83.456
1401.4000, -82.141
1401.5000, -81.451
1401.6000, -87.914
1401.7000, -81.819
1401.8000, -89.794
1401.9000, -81.893
1402.0000, -85.454
1402.1000, -82.975
1402.2000, -83.081
1402.3000, -81.688
1402.4000, -85.714
1402.5000, -85.828
1402.6000, -83.067
1402.7000, -84.122
1402.8000, -86.293
1402.9000, -81.368
1403.0000, -81.705
1403.1000, -83.801
1403.2000, -83.219
1403.3000, -81.617
1403.4000, -83.982
1403.5000, -82.178
1403.6000, -83.225
1403.7000, -84.152
1403.8000, -83.203
1403.9000, -84.555
1404.0000, -85.696
1404.1000, -83.513
1404.2000, -81.741
1404.3000, -85.419
1404.4000, -82.598
1404.5000, -81.668
1404.6000, -84.383
1404.7000, -84.942
1404.8000, -83.346
1404.9000, -82.695
1405.0000, -81.668
1405.1000, -81.600
1405.2000, -88.238
1405.3000, -82.486
1405.4000, -81.800
1405.5000,-210.000
1405.6000, -81.782
1405.7000, -80.162
1405.8000,-210.000
1405.9000, -79.338
1406.0000, -85.020
1406.1000, -90.713
1406.2000, -81.791
1406.3000, -83.581
1406.4000, -82.142
1406.5000, -86.537
1406.6000, -83.439
1406.7000, -79.879
1406.8000, -88.042
1406.9000, -86.212
1407.0000, -84.255
1407.1000, -84.806
1407.2000, -82.318
1407.3000, -80.718
1407.4000, -94.214
1407.5000, -82.625
1407.6000, -84.078
1407.7000, -98.773
1407.8000, -83.451
1407.9000, -80.534
1408.0000, -82.688
1408.1000, -88.706
1408.2000, -83.430
1408.3000, -83.964
1408.4000, -85.743
1408.5000, -81.506
1408.6000, -81.848
1408.7000, -79.442
1408.8000,-210.000
1408.9000, -81.408
1409.0000, -87.388
1409.1000, -85.753
1409.2000, -84.151
1409.3000, -83.280
1409.4000, -85.194
1409.5000, -85.929
1409.6000, -82.328
1409.7000, -80.754
1409.8000, -82.925
1409.9000, -84.139
1410.0000, -83.601
1410.1000, -82.568
1410.2000, -94.484
1410.3000, -80.509
1410.4000, -81.856
1410.5000, -82.509
1410.6000, -84.660
1410.7000,-210.000
1410.8000, -79.348
1410.9000, -82.600
1411.0000, -87.958
1411.1000, -85.771
1411.2000, -93.161
1411.3000, -81.798
1411.4000, -81.434
1411.5000, -82.518
1411.6000, -83.464
1411.7000, -85.341
1411.8000, -80.609
1411.9000, -82.583
1412.0000, -86.621
1412.1000, -84.937
1412.2000, -83.079
1412.3000, -82.195
1412.4000, -83.822
1412.5000, -84.917
1412.6000, -84.861
1412.7000, -83.185
1412.8000, -83.807
1412.9000, -81.130
1413.0000, -81.029
1413.1000, -82.234
1413.2000, -84.395
1413.3000, -81.818
1413.4000, -84.963
1413.5000, -82.592
1413.6000, -82.817
1413.7000, -84.800
1413.8000, -83.884
1413.9000, -84.280
1414.0000, -82.077
1414.1000, -84.243
1414.2000, -84.317
1414.3000, -83.673
1414.4000, -80.851
1414.5000, -83.647
1414.6000, -86.304
1414.7000, -82.357
1414.8000, -86.398
1414.9000, -82.727
1415.0000, -78.839
1415.1000,-210.000
1415.2000, -83.717
1415.3000, -83.521
1415.4000, -85.663
1415.5000, -80.987
1415.6000, -82.151
1415.7000, -78.996
1415.8000, -89.503
1415.9000, -83.116
1416.0000, -81.101
1416.1000, -86.638
1416.2000, -84.817
1416.3000, -82.367
1416.4000,-210.000
1416.5000, -84.650
1416.6000, -83.441
1416.7000, -81.876
1416.8000, -83.265
1416.9000, -83.991
1417.0000, -81.358
1417.1000, -86.006
1417.2000, -83.629
1417.3000, -83.077
1417.4000, -82.292
1417.5000,-210.000
1417.6000, -77.115
1417.7000, -87.441
1417.8000, -85.428
1417.9000, -85.753
1418.0000, -82.335
1418.1000, -81.830
1418.2000, -81.130
1418.3000, -82.290
1418.4000,-100.129
1418.5000, -80.647
1418.6000, -84.617
1418.7000, -82.586
1418.8000, -86.256
1418.9000, -84.049
1419.0000, -85.346
1419.1000, -83.535
1419.2000, -82.859
1419.3000, -86.069
1419.4000, -88.464
1419.5000, -82.043
1419.6000, -81.281
1419.7000, -83.132
1419.8000, -84.683
1419.9000, -83.556
1420.0000, -84.659
1420.1000, -81.504
1420.2000, -83.452
1420.3000, -82.248
1420.4000, -85.829
1420.5000, -80.664
1420.6000, -83.010
1420.7000, -84.497
1420.8000, -80.840
1420.9000, -82.457
1421.0000, -83.378
1421.1000, -84.077
1421.2000, -83.096
1421.3000, -80.284
1421.4000, -81.302
1421.5000, -90.265
1421.6000, -80.484
1421.7000, -84.831
1421.8000, -81.064
1421.9000,-210.000
1422.0000, -79.273
1422.1000,-210.000
1422.2000, -81.028
1422.3000, -88.150
1422.4000, -82.928
1422.5000, -82.461
1422.6000, -82.211
1422.7000, -83.776
1422.8000, -83.249
1422.9000, -87.162
1423.0000, -82.097
1423.1000, -82.063
1423.2000, -84.426
1423.3000, -82.678
1423.4000, -83.781
1423.5000, -86.926
1423.6000, -81.791
1423.7000, -82.108
1423.8000, -81.979
1423.9000, -82.007
1424.0000, -82.398
1424.1000, -81.011
1424.2000, -83.268
1424.3000, -83.406
1424.4000, -88.258
1424.5000, -82.484
1424.6000, -84.067
1424.7000, -82.753
1424.8000, -86.189
1424.9000, -82.083
1425.0000, -81.638
1425.1000, -81.127
1425.2000, -82.741
1425.3000, -82.576
1425.4000, -81.963
1425.5000, -83.490
1425.6000, -82.925
1425.7000, -82.168
1425.8000, -83.405
1425.9000, -82.934
1426.0000, -86.378
1426.1000, -82.823
1426.2000, -82.634
1426.3000, -81.013
1426.4000, -82.698
1426.5000, -84.807
1426.6000, -87.064
1426.7000, -81.037
1426.8000, -81.721
1426.9000, -85.008
1427.0000, -84.449
1427.1000, -84.244
1427.2000, -83.426
1427.3000, -82.834
1427.4000, -81.625
1427.5000, -82.459
1427.6000, -81.542
1427.7000, -91.464
1427.8000, -86.112
1427.9000, -82.070
1428.0000, -81.904
1428.1000, -82.482
1428.2000, -80.471
1428.3000,-210.000
1428.4000, -90.562
1428.5000, -80.058
1428.6000, -84.289
1428.7000, -80.282
1428.8000, -86.707
1428.9000, -81.131
1429.0000, -89.639
1429.1000, -80.417
1429.2000, -83.738
1429.3000, -84.575
1429.4000, -80.755
1429.5000, -80.988
1429.6000, -84.773
1429.7000, -87.836
1429.8000, -77.774
1429.9000, -89.460
1430.0000, -79.488
1430.1000, -88.955
1430.2000, -84.720
1430.3000, -86.354
1430.4000, -80.164
1430.5000, -82.407
1430.6000, -84.501
1430.7000, -83.548
1430.8000,-210.000
1430.9000, -85.518
1431.0000, -83.534
1431.1000,-210.000
1431.2000, -82.587
1431.3000, -85.138
1431.4000, -84.351
1431.5000, -82.911
1431.6000, -82.061
1431.7000, -81.673
1431.8000, -81.790
1431.9000, -83.911
1432.0000, -86.011
1432.1000, -83.029
1432.2000, -83.825
1432.3000, -83.907
1432.4000, -83.886
1432.5000, -83.792
1432.6000, -83.293
1432.7000, -82.647
1432.8000, -87.623
1432.9000, -81.923
1433.0000, -79.836
1433.1000, -85.777
1433.2000, -80.109
1433.3000,-210.000
1433.4000, -83.137
1433.5000, -85.690
1433.6000, -82.631
1433.7000, -81.717
1433.8000, -81.915
1433.9000, -82.785
1434.0000, -85.423
1434.1000, -82.397
1434.2000, -82.750
1434.3000, -80.692
1434.4000,-210.000
1434.5000, -83.448
1434.6000, -81.852
1434.7000, -83.761
1434.8000, -85.762
1434.9000, -81.130
1435.0000, -83.622
1435.1000, -81.864
1435.2000, -84.209
1435.3000, -81.037
1435.4000, -82.280
1435.5000, -83.308
1435.6000, -84.908
1435.7000, -82.877
1435.8000, -80.959
1435.9000, -83.009
1436.0000, -81.528
1436.1000, -88.451
1436.2000, -81.509
1436.3000, -82.416
1436.4000, -80.541
1436.5000, -83.512
1436.6000,-210.000
1436.7000, -87.375
1436.8000, -79.095
1436.9000, -83.546
1437.0000, -85.176
1437.1000, -83.687
1437.2000, -83.409
1437.3000, -81.299
1437.4000, -83.100
1437.5000, -89.201
1437.6000, -81.404
1437.7000, -81.491
1437.8000, -84.351
1437.9000, -85.363
1438.0000, -82.777
1438.1000, -84.813
1438.2000, -83.481
1438.3000, -82.071
1438.4000, -81.191
1438.5000, -85.864
1438.6000, -82.576
1438.7000, -85.029
1438.8000, -82.121
1438.9000, -83.301
1439.0000, -92.481
1439.1000, -81.006
1439.2000, -86.265
1439.3000, -81.104
1439.4000, -86.627
1439.5000, -83.531
1439.6000, -82.860
1439.7000, -84.910
1439.8000, -82.240
1439.9000, -85.946
1440.0000, -81.880
1440.1000, -83.168
1440.2000, -82.570
1440.3000, -81.803
1440.4000, -83.598
1440.5000, -83.286
1440.6000, -81.208
1440.7000, -83.145
1440.8000, -80.477
1440.9000, -85.691
1441.0000, -80.016
1441.1000, -89.188
1441.2000, -85.677
1441.3000, -84.704
1441.4000, -85.612
1441.5000, -87.798
1441.6000, -81.355
1441.7000, -81.553
1441.8000, -95.243
1441.9000, -82.485
1442.0000, -82.765
1442.1000, -82.318
1442.2000, -84.383
1442.3000, -84.186
1442.4000, -79.872
1442.5000,-210.000
1442.6000, -81.374
1442.7000, -86.077
1442.8000, -81.685
1442.9000, -81.640
1443.0000, -84.338
1443.1000, -85.048
1443.2000, -81.264
1443.3000, -90.254
1443.4000, -83.053
1443.5000, -79.023
1443.6000,-210.000
1443.7000, -83.364
1443.8000, -82.939
1443.9000, -84.607
1444.0000, -92.672
1444.1000, -83.254
1444.2000, -82.996
1444.3000, -81.408
1444.4000, -80.640
1444.5000, -84.009
1444.6000, -88.132
1444.7000, -88.504
1444.8000, -83.477
1444.9000, -82.114
1445.0000, -83.052
1445.1000, -84.162
1445.2000, -81.516
1445.3000, -83.754
1445.4000, -85.704
1445.5000, -85.899
1445.6000, -89.162
1445.7000, -81.344
1445.8000, -85.447
1445.9000, -84.077
1446.0000, -85.121
1446.1000, -80.578
1446.2000, -86.240
1446.3000, -82.998
1446.4000, -82.128
1446.5000, -83.045
1446.6000, -81.376
1446.7000,-210.000
1446.8000, -79.837
1446.9000, -82.324
1447.0000, -83.601
1447.1000, -82.455
1447.2000, -82.540
1447.3000, -83.715
1447.4000, -85.381
1447.5000, -87.336
1447.6000, -80.998
1447.7000, -79.688
1447.8000, -86.684
1447.9000, -83.383
1448.0000, -82.952
1448.1000, -84.680
1448.2000, -83.897
1448.3000, -81.341
1448.4000, -84.093
1448.5000, -82.469
1448.6000, -82.850
1448.7000, -81.124
1448.8000, -82.566
1448.9000, -82.459
1449.0000, -85.981
1449.1000, -81.408
1449.2000, -84.051
1449.3000, -86.092
1449.4000, -84.455
1449.5000, -86.269
1449.6000, -82.429
1449.7000, -85.239
1449.8000, -87.046
1449.9000, -84.078
1450.0000, -80.956
1450.1000, -82.165
1450.2000, -82.790
1450.3000, -82.079
1450.4000, -86.159
1450.5000, -83.282
1450.6000, -87.975
1450.7000, -82.454
1450.8000, -85.203
1450.9000, -85.033
1451.0000, -83.339
1451.1000, -81.537
1451.2000, -85.014
1451.3000,-210.000
1451.4000, -83.500
1451.5000, -82.019
1451.6000, -86.923
1451.7000, -82.624
1451.8000, -82.400
1451.9000, -85.154
1452.0000, -85.653
1452.1000, -87.680
1452.2000, -82.669
1452.3000, -81.397
1452.4000, -83.371
1452.5000, -84.647
1452.6000, -83.586
1452.7000, -84.246
1452.8000, -80.440
1452.9000,-210.000
1453.0000, -81.730
1453.1000, -80.375
1453.2000, -83.094
1453.3000, -85.434
1453.4000, -81.043
1453.5000, -82.113
1453.6000, -81.986
1453.7000, -83.852
1453.8000,-210.000
1453.9000, -84.213
1454.0000, -81.899
1454.1000, -83.779
1454.2000, -91.018
1454.3000, -78.624
1454.4000, -85.537
1454.5000, -81.643
1454.6000, -84.937
1454.7000, -84.631
1454.8000, -84.868
1454.9000, -83.664
1455.0000, -80.519
1455.1000,-210.000
1455.2000, -85.343
1455.3000, -83.131
1455.4000, -83.841
1455.5000, -85.429
1455.6000, -81.324
1455.7000, -82.037
1455.8000, -86.601
1455.9000, -83.582
1456.0000, -83.230
1456.1000, -83.035
1456.2000, -82.794
1456.3000, -83.292
1456.4000, -84.845
1456.5000, -83.952
1456.6000, -82.122
1456.7000, -84.428
1456.8000, -98.492
1456.9000, -85.206
1457.0000, -81.231
1457.1000, -81.368
1457.2000, -87.412
1457.3000, -83.266
1457.4000, -82.293
1457.5000, -81.600
1457.6000, -82.865
1457.7000, -81.414
1457.8000, -91.010
1457.9000, -82.452
1458.0000, -85.627
1458.1000, -81.658
1458.2000, -88.131
1458.3000, -82.555
1458.4000, -83.746
1458.5000, -83.265
1458.6000, -85.820
1458.7000, -85.061
1458.8000, -82.040
1458.9000, -81.630
1459.0000, -84.082
1459.1000, -82.157
1459.2000, -83.519
1459.3000, -89.531
1459.4000, -86.052
1459.5000, -81.839
1459.6000, -83.940
1459.7000,-102.948
1459.8000, -82.790
1459.9000, -85.639
1460.0000, -83.199
1460.1000, -82.746
1460.2000, -83.853
1460.3000, -89.937
1460.4000, -85.925
1460.5000, -81.402
1460.6000, -85.478
1460.7000, -82.986
1460.8000, -79.162
1460.9000,-210.000
1461.0000, -83.045
1461.1000,-210.000
1461.2000, -81.208
1461.3000, -78.746
1461.4000,-210.000
1461.5000, -85.482
1461.6000, -81.329
1461.7000, -83.116
1461.8000, -86.761
1461.9000, -81.431
1462.0000, -82.338
1462.1000, -84.450
1462.2000, -83.923
1462.3000, -82.832
1462.4000, -82.277
1462.5000, -86.568
1462.6000, -84.319
1462.7000, -81.614
1462.8000, -84.044
1462.9000, -82.002
1463.0000, -86.420
1463.1000, -82.680
1463.2000, -89.842
1463.3000, -84.644
1463.4000, -82.040
1463.5000, -94.171
1463.6000, -83.346
1463.7000, -84.776
1463.8000, -87.944
1463.9000, -81.739
1464.0000, -86.251
1464.1000, -80.775
1464.2000, -87.365
1464.3000, -89.288
1464.4000, -83.443
1464.5000, -80.097
1464.6000, -87.442
1464.7000, -80.477
1464.8000, -81.775
1464.9000,-210.000
1465.0000, -81.777
1465.1000, -82.016
1465.2000, -83.091
1465.3000, -83.421
1465.4000, -83.966
1465.5000, -82.768
1465.6000, -82.355
1465.7000, -84.411
1465.8000, -82.534
1465.9000, -84.380
1466.0000, -83.822
1466.1000, -81.901
1466.2000, -83.943
1466.3000, -85.477
1466.4000, -84.692
1466.5000, -83.102
1466.6000, -82.387
1466.7000, -83.946
1466.8000, -83.117
1466.9000, -82.335
1467.0000, -84.608
1467.1000, -81.933
1467.2000, -82.062
1467.3000, -84.733
1467.4000, -84.655
1467.5000, -78.533
1467.6000,-210.000
1467.7000, -81.549
1467.8000,-100.016
1467.9000, -83.196
1468.0000, -82.331
1468.1000, -85.584
1468.2000, -82.883
1468.3000, -81.591
1468.4000, -79.895
1468.5000, -86.445
1468.6000,-210.000
1468.7000, -83.687
1468.8000, -90.226
1468.9000, -80.427
1469.0000,-210.000
1469.1000, -85.985
1469.2000, -81.274
1469.3000, -84.775
1469.4000, -79.599
1469.5000,-210.000
1469.6000, -79.884
1469.7000, -84.081
1469.8000, -83.232
1469.9000, -98.034
1470.0000, -82.643
1470.1000, -83.108
1470.2000, -82.960
1470.3000, -86.640
1470.4000, -84.503
1470.5000, -82.489
1470.6000, -82.609
1470.7000, -85.853
1470.8000, -83.779
1470.9000, -87.202
1471.0000, -81.905
1471.1000, -83.706
1471.2000, -87.056
1471.3000, -85.109
1471.4000, -84.499
1471.5000, -82.029
1471.6000, -85.747
1471.7000, -83.411
1471.8000, -83.365
1471.9000, -84.529
1472.0000, -85.277
1472.1000, -83.107
1472.2000, -82.343
1472.3000, -83.606
1472.4000, -82.029
1472.5000, -87.657
1472.6000, -83.405
1472.7000, -81.946
1472.8000, -85.832
1472.9000, -82.473
1473.0000, -87.022
1473.1000, -84.736
1473.2000, -84.919
1473.3000, -84.002
1473.4000, -82.797
1473.5000, -81.775
1473.6000, -86.541
1473.7000, -85.146
1473.8000, -82.404
1473.9000, -81.500
1474.0000, -83.963
1474.1000, -86.819
1474.2000, -81.836
1474.3000, -83.026
1474.4000, -82.456
1474.5000, -84.016
1474.6000, -83.685
1474.7000, -82.521
1474.8000, -81.202
1474.9000, -82.732
1475.0000, -84.176
1475.1000, -89.990
1475.2000, -85.291
1475.3000, -83.905
1475.4000, -82.112
1475.5000, -84.769
1475.6000, -87.534
1475.7000, -81.704
1475.8000, -83.906
1475.9000, -83.876
1476.0000, -83.350
1476.1000, -83.189
1476.2000, -81.678
1476.3000, -86.313
1476.4000, -85.320
1476.5000, -83.558
1476.6000, -82.082
1476.7000, -81.172
1476.8000, -87.069
1476.9000, -85.039
1477.0000, -80.932
1477.1000,-210.000
1477.2000, -81.527
1477.3000, -90.414
1477.4000, -82.713
1477.5000, -83.944
1477.6000, -81.498
1477.7000, -83.770
1477.8000, -81.941
1477.9000,-210.000
1478.0000, -84.477
1478.1000, -83.290
1478.2000, -85.587
1478.3000, -84.102
1478.4000, -81.428
1478.5000, -80.936
1478.6000,-210.000
1478.7000, -81.428
1478.8000, -86.280
1478.9000, -87.114
1479.0000, -84.149
1479.1000, -81.576
1479.2000, -81.522
1479.3000, -85.902
1479.4000, -80.766
1479.5000, -86.420
1479.6000, -91.283
1479.7000, -83.573
1479.8000, -84.886
1479.9000, -81.488
1480.0000, -86.318
1480.1000, -83.076
1480.2000, -86.552
1480.3000, -81.640
1480.4000, -86.135
1480.5000, -81.434
1480.6000, -79.869
1480.7000, -83.013
1480.8000, -85.817
1480.9000,-210.000
1481.0000, -82.907
1481.1000,-210.000
1481.2000, -83.450
1481.3000, -81.595
1481.4000, -82.751
1481.5000, -89.342
1481.6000, -84.803
1481.7000, -82.709
1481.8000, -82.087
1481.9000, -83.206
1482.0000, -83.935
1482.1000, -84.874
1482.2000, -81.868
1482.3000, -87.054
1482.4000, -83.509
1482.5000, -79.138
1482.6000, -90.782
1482.7000, -82.373
1482.8000, -89.732
1482.9000, -82.645
1483.0000, -86.499
1483.1000, -82.842
1483.2000, -85.968
1483.3000, -84.661
1483.4000, -81.489
1483.5000,-210.000
1483.6000, -82.745
1483.7000, -87.557
1483.8000, -84.024
1483.9000, -83.711
1484.0000, -82.363
1484.1000, -84.359
1484.2000, -90.185
1484.3000, -82.164
1484.4000, -81.104
1484.5000,-210.000
1484.6000, -82.576
1484.7000, -82.192
1484.8000, -83.891
1484.9000, -82.068
1485.0000, -83.064
1485.1000, -81.092
1485.2000, -97.187
1485.3000, -82.301
1485.4000, -84.237
1485.5000,-210.000
1485.6000, -79.856
1485.7000, -95.343
1485.8000, -82.341
1485.9000, -83.017
1486.0000, -82.875
1486.1000, -86.335
1486.2000, -86.542
1486.3000, -84.219
1486.4000, -82.752
1486.5000, -81.926
1486.6000, -87.315
1486.7000, -85.068
1486.8000, -82.458
1486.9000, -91.536
1487.0000, -82.795
1487.1000, -86.339
1487.2000, -83.170
1487.3000, -84.531
1487.4000, -86.893
1487.5000, -81.997
1487.6000, -88.544
1487.7000, -83.338
1487.8000, -81.754
1487.9000, -90.433
1488.0000, -82.674
1488.1000, -80.824
1488.2000, -91.852
1488.3000, -82.175
1488.4000, -86.196
1488.5000, -84.742
1488.6000, -81.802
1488.7000, -81.216
1488.8000, -84.433
1488.9000, -79.429
1489.0000,-210.000
1489.1000, -92.270
1489.2000, -84.356
1489.3000,-210.000
1489.4000, -82.229
1489.5000, -87.551
1489.6000, -82.677
1489.7000, -81.865
1489.8000, -83.815
1489.9000, -82.917
1490.0000, -84.224
1490.1000, -84.586
1490.2000, -81.968
1490.3000, -86.239
1490.4000, -82.286
1490.5000, -85.613
1490.6000, -80.189
1490.7000, -82.956
1490.8000,-210.000
1490.9000, -76.774
1491.0000, -80.352
1491.1000, -89.435
1491.2000, -80.294
1491.3000,-210.000
1491.4000, -84.400
1491.5000, -88.009
1491.6000, -81.544
1491.7000,-210.000
1491.8000, -81.321
1491.9000, -89.066
1492.0000, -83.310
1492.1000, -84.536
1492.2000, -85.195
1492.3000, -82.816
1492.4000, -82.622
1492.5000, -81.806
1492.6000, -82.143
1492.7000, -87.295
1492.8000, -85.223
1492.9000, -83.126
1493.0000, -82.812
1493.1000, -83.254
1493.2000, -81.861
1493.3000, -84.137
1493.4000, -82.864
1493.5000, -82.156
1493.6000, -83.235
1493.7000, -85.584
1493.8000, -84.657
1493.9000, -84.687
1494.0000, -87.091
1494.1000, -85.029
1494.2000, -84.130
1494.3000, -83.793
1494.4000, -85.037
1494.5000, -82.866
1494.6000, -87.920
1494.7000, -85.346
1494.8000, -83.763
1494.9000, -85.019
1495.0000, -81.618
1495.1000, -84.397
1495.2000, -83.585
1495.3000, -84.527
1495.4000, -82.495
1495.5000, -81.774
1495.6000, -85.368
1495.7000, -82.484
1495.8000, -82.357
1495.9000, -84.135
1496.0000, -83.396
1496.1000, -83.083
1496.2000, -83.491
1496.3000, -84.281
1496.4000, -85.086
1496.5000, -82.492
1496.6000, -82.639
1496.7000, -85.520
1496.8000, -84.923
1496.9000, -82.983
1497.0000, -84.329
1497.1000, -81.918
1497.2000, -83.431
1497.3000, -86.735
1497.4000, -83.327
1497.5000, -82.413
1497.6000, -82.570
1497.7000, -84.633
1497.8000, -85.862
1497.9000, -82.253
1498.0000, -84.994
1498.1000, -82.000
1498.2000, -83.763
1498.3000, -82.583
1498.4000, -82.110
1498.5000, -86.776
1498.6000, -82.743
1498.7000, -83.441
1498.8000, -83.489
1498.9000, -84.051
1499.0000, -83.058
1499.1000, -84.541
1499.2000, -83.557
1499.3000, -82.672
1499.4000, -88.820
1499.5000, -82.468
1499.6000, -84.565
1499.7000, -80.386
1499.8000, -84.385
1499.9000, -82.175
1500.0000,-210.000
1500.1000, -84.361
1500.2000, -84.279
1500.3000, -84.750
1500.4000, -81.682
1500.5000, -84.239
1500.6000, -87.246
1500.7000, -82.548
1500.8000, -81.232
1500.9000, -82.729
1501.0000, -83.870
1501.1000, -90.930
1501.2000, -84.495
1501.3000, -83.159
1501.4000, -87.459
1501.5000, -80.217
1501.6000,-210.000
1501.7000, -80.607
1501.8000, -87.560
1501.9000, -83.292
1502.0000, -84.992
1502.1000, -81.744
1502.2000, -86.430
1502.3000, -89.477
1502.4000, -83.461
1502.5000, -84.156
1502.6000, -82.734
1502.7000, -83.719
1502.8000, -82.753
1502.9000, -90.141
1503.0000, -82.252
1503.1000, -81.668
1503.2000, -83.371
1503.3000, -83.878
1503.4000, -82.933
1503.5000, -83.685
1503.6000, -83.837
1503.7000, -81.553
1503.8000, -83.843
1503.9000,-210.000
1504.0000, -83.551
1504.1000, -82.370
1504.2000, -82.040
1504.3000, -85.383
1504.4000, -83.278
1504.5000, -81.081
1504.6000, -84.459
1504.7000, -83.804
1504.8000, -81.547
1504.9000, -83.488
1505.0000,-210.000
1505.1000, -81.838
1505.2000, -83.324
1505.3000, -83.998
1505.4000, -85.641
1505.5000, -82.626
1505.6000, -81.681
1505.7000, -86.954
1505.8000, -84.914
1505.9000, -81.788
1506.0000, -84.954
1506.1000, -84.403
1506.2000, -84.680
1506.3000, -82.010
1506.4000, -83.934
1506.5000, -84.193
1506.6000, -83.020
1506.7000, -82.801
1506.8000, -87.317
1506.9000, -83.416
1507.0000, -82.271
1507.1000, -82.816
1507.2000, -85.547
1507.3000, -89.736
1507.4000, -80.026
1507.5000, -84.052
1507.6000, -81.483
1507.7000, -84.196
1507.8000, -83.021
1507.9000, -86.890
1508.0000, -81.874
1508.1000, -81.914
1508.2000, -83.622
1508.3000, -96.924
1508.4000, -80.384
1508.5000, -84.245
1508.6000, -87.910
1508.7000, -80.506
1508.8000, -88.547
1508.9000, -80.874
1509.0000, -87.074
1509.1000, -82.224
1509.2000, -83.267
1509.3000, -85.881
1509.4000, -84.109
1509.5000, -83.056
1509.6000, -84.481
1509.7000, -85.820
1509.8000, -86.359
1509.9000, -81.883
1510.0000, -82.630
1510.1000, -84.760
1510.2000, -81.485
1510.3000, -90.179
1510.4000, -85.962
1510.5000, -82.773
1510.6000, -83.626
1510.7000, -84.653
1510.8000, -84.580
1510.9000, -84.083
1511.0000, -81.827
1511.1000, -84.619
1511.2000, -82.721
1511.3000, -83.402
1511.4000, -84.287
1511.5000, -87.663
1511.6000, -82.253
1511.7000, -84.014
1511.8000, -82.067
1511.9000, -82.727
1512.0000, -86.019
1512.1000, -84.199
1512.2000, -84.559
1512.3000, -83.007
1512.4000, -82.010
1512.5000, -83.926
1512.6000, -84.025
1512.7000, -88.465
1512.8000, -82.393
1512.9000, -83.233
1513.0000, -84.155
1513.1000, -83.929
1513.2000, -83.500
1513.3000, -81.328
1513.4000, -84.565
1513.5000,-210.000
1513.6000, -82.675
1513.7000, -83.612
1513.8000, -85.771
1513.9000, -82.075
1514.0000, -83.390
1514.1000, -81.737
1514.2000, -87.219
1514.3000, -85.871
1514.4000, -83.522
1514.5000, -81.903
1514.6000, -85.588
1514.7000, -81.302
1514.8000, -86.290
1514.9000, -83.297
1515.0000, -83.375
1515.1000, -78.812
1515.2000,-210.000
1515.3000, -80.597
1515.4000, -81.691
1515.5000, -84.171
1515.6000,-210.000
1515.7000, -82.093
1515.8000, -80.079
1515.9000, -91.453
1516.0000, -81.186
1516.1000,-106.815
1516.2000, -81.352
1516.3000, -83.258
1516.4000, -83.415
1516.5000, -84.727
1516.6000, -84.049
1516.7000, -82.008
1516.8000, -82.291
1516.9000, -82.779
1517.0000, -84.882
1517.1000, -82.700
1517.2000, -81.343
1517.3000, -83.627
1517.4000, -86.720
1517.5000, -84.531
1517.6000, -82.715
1517.7000,-210.000
1517.8000, -82.894
1517.9000, -84.007
1518.0000, -81.179
1518.1000, -82.077
1518.2000, -83.025
1518.3000, -82.642
1518.4000, -86.859
1518.5000, -83.223
1518.6000, -83.194
1518.7000, -84.683
1518.8000, -85.259
1518.9000, -84.463
1519.0000, -84.595
1519.1000, -82.228
1519.2000, -83.208
1519.3000, -82.577
1519.4000, -85.985
1519.5000, -83.534
1519.6000, -82.622
1519.7000, -83.983
1519.8000, -85.098
1519.9000, -85.040
1520.0000, -83.617
1520.1000, -83.105
1520.2000, -80.860
1520.3000, -84.386
1520.4000, -86.516
1520.5000, -82.852
1520.6000, -86.702
1520.7000, -85.412
1520.8000, -80.640
1520.9000, -84.454
1521.0000, -81.571
1521.1000, -84.382
1521.2000, -83.733
1521.3000, -87.373
1521.4000, -83.317
1521.5000, -86.963
1521.6000, -81.143
1521.7000, -84.240
1521.8000, -86.893
1521.9000, -85.199
1522.0000, -83.908
1522.1000, -83.279
1522.2000, -82.620
1522.3000, -82.762
1522.4000, -83.908
1522.5000, -82.047
1522.6000, -82.161
1522.7000, -87.684
1522.8000, -86.561
1522.9000, -84.161
1523.0000, -82.941
1523.1000, -84.564
1523.2000, -81.296
1523.3000, -82.119
1523.4000, -83.347
1523.5000, -86.596
1523.6000, -81.882
1523.7000, -81.266
1523.8000, -86.675
1523.9000, -92.900
1524.0000, -82.051
1524.1000, -84.111
1524.2000, -87.669
1524.3000, -81.872
1524.4000, -84.198
1524.5000, -80.222
1524.6000,-210.000
1524.7000, -82.599
1524.8000, -79.929
1524.9000, -92.267
1525.0000,-210.000
1525.1000, -80.699
1525.2000, -83.377
1525.3000, -95.141
1525.4000, -82.033
1525.5000, -87.485
1525.6000, -82.006
1525.7000, -80.838
1525.8000,-210.000
1525.9000, -83.183
1526.0000, -82.296
1526.1000, -96.347
1526.2000, -82.831
1526.3000, -82.285
1526.4000,-106.100
1526.5000, -80.123
1526.6000, -83.266
1526.7000, -83.971
1526.8000, -83.686
1526.9000, -81.747
1527.0000, -86.401
1527.1000, -82.218
1527.2000, -81.573
1527.3000, -81.774
1527.4000, -81.407
1527.5000, -80.243
1527.6000, -83.218
1527.7000, -83.960
1527.8000, -82.263
1527.9000, -82.058
1528.0000,-210.000
1528.1000, -79.041
1528.2000, -86.284
1528.3000, -81.234
1528.4000, -84.870
1528.5000, -91.962
1528.6000, -81.096
1528.7000, -80.732
1528.8000,-210.000
1528.9000, -88.801
1529.0000, -80.241
1529.1000, -86.057
1529.2000, -83.232
1529.3000, -80.785
1529.4000, -81.503
1529.5000, -84.335
1529.6000, -88.004
1529.7000, -80.896
1529.8000, -85.670
1529.9000, -84.836
1530.0000, -81.599
1530.1000,-210.000
1530.2000, -85.077
1530.3000, -80.482
1530.4000, -80.664
1530.5000, -86.652
1530.6000, -92.919
1530.7000, -84.802
1530.8000, -80.561
1530.9000,-210.000
1531.0000, -93.239
1531.1000, -82.576
1531.2000, -82.506
1531.3000, -80.552
1531.4000, -85.183
1531.5000, -85.402
1531.6000, -87.798
1531.7000, -82.742
1531.8000, -84.870
1531.9000, -83.148
1532.0000, -84.906
1532.1000, -83.829
1532.2000, -84.341
1532.3000, -87.547
1532.4000, -86.780
1532.5000, -81.817
1532.6000, -88.551
1532.7000, -84.298
1532.8000, -83.625
1532.9000, -81.014
1533.0000, -81.764
1533.1000, -84.422
1533.2000, -84.222
1533.3000, -82.006
1533.4000, -83.059
1533.5000, -83.021
1533.6000, -81.396
1533.7000, -82.980
1533.8000, -83.106
1533.9000, -82.720
1534.0000, -85.645
1534.1000, -85.141
1534.2000, -88.476
1534.3000, -83.058
1534.4000, -81.743
1534.5000, -82.702
1534.6000, -83.306
1534.7000, -85.177
1534.8000, -82.091
1534.9000, -83.208
1535.0000, -83.639
1535.1000, -83.650
1535.2000, -82.460
1535.3000, -82.661
1535.4000, -83.422
1535.5000, -82.885
1535.6000, -86.149
1535.7000, -83.676
1535.8000, -82.412
1535.9000, -86.299
1536.0000, -84.768
1536.1000, -81.487
1536.2000, -83.659
1536.3000, -83.606
1536.4000, -85.348
1536.5000, -82.670
1536.6000, -83.609
1536.7000, -82.353
1536.8000, -82.682
1536.9000, -82.265
1537.0000, -83.288
1537.1000, -82.574
1537.2000, -83.958
1537.3000, -85.228
1537.4000, -83.987
1537.5000, -83.844
1537.6000, -80.855
1537.7000, -86.482
1537.8000, -84.999
1537.9000, -82.774
1538.0000, -84.876
1538.1000, -82.183
1538.2000, -82.949
1538.3000, -81.296
1538.4000, -87.912
1538.5000, -82.189
1538.6000, -83.394
1538.7000, -83.883
1538.8000, -81.499
1538.9000, -84.157
1539.0000, -84.275
1539.1000, -84.619
1539.2000, -82.074
1539.3000, -84.443
1539.4000, -81.836
1539.5000, -83.688
1539.6000, -82.612
1539.7000, -82.628
1539.8000, -88.634
1539.9000, -82.819
1540.0000, -83.859
1540.1000, -83.076
1540.2000, -82.369
1540.3000, -82.020
1540.4000, -85.215
1540.5000, -83.136
1540.6000, -82.234
1540.7000, -82.441
1540.8000, -83.860
1540.9000, -81.831
1541.0000, -82.334
1541.1000, -83.218
1541.2000, -82.492
1541.3000, -83.850
1541.4000, -82.147
1541.5000, -86.807
1541.6000, -81.503
1541.7000, -80.395
1541.8000,-210.000
1541.9000, -80.555
1542.0000, -83.691
1542.1000, -91.733
1542.2000, -86.724
1542.3000, -81.714
1542.4000, -80.813
1542.5000, -82.320
1542.6000, -84.794
1542.7000, -91.104
1542.8000, -92.109
1542.9000, -83.630
1543.0000, -86.085
1543.1000, -83.175
1543.2000, -84.528
1543.3000, -83.565
1543.4000, -85.606
1543.5000, -84.889
1543.6000, -82.389
1543.7000, -85.269
1543.8000, -83.107
1543.9000, -82.902
1544.0000, -84.762
1544.1000, -84.026
1544.2000, -83.198
1544.3000, -86.262
1544.4000, -80.804
1544.5000, -84.051
1544.6000, -84.702
1544.7000, -81.251
1544.8000, -87.777
1544.9000, -82.989
1545.0000, -93.692
1545.1000, -82.995
1545.2000, -93.332
1545.3000, -83.637
1545.4000, -82.388
1545.5000, -82.318
1545.6000, -85.788
1545.7000, -80.666
1545.8000, -85.105
1545.9000, -83.908
1546.0000, -80.192
1546.1000, -90.008
1546.2000, -78.508
1546.3000, -86.045
1546.4000, -81.414
1546.5000, -84.285
1546.6000, -90.133
1546.7000, -83.734
1546.8000, -82.810
1546.9000, -82.075
1547.0000, -85.259
1547.1000, -82.365
1547.2000, -84.067
1547.3000, -87.290
1547.4000, -83.515
1547.5000, -81.263
1547.6000, -83.181
1547.7000, -82.898
1547.8000, -81.345
1547.9000, -83.346
1548.0000, -84.516
1548.1000, -82.721
1548.2000, -83.772
1548.3000, -81.890
1548.4000, -82.552
1548.5000, -82.693
1548.6000, -82.293
1548.7000, -84.309
1548.8000,-210.000
1548.9000, -82.232
1549.0000, -81.609
1549.1000, -83.565
1549.2000, -82.225
1549.3000, -84.459
1549.4000, -80.875
1549.5000, -84.060
1549.6000, -88.519
1549.7000, -84.439
1549.8000, -83.871
1549.9000, -82.995
1550.0000, -82.504
1550.1000, -82.463
1550.2000, -84.941
1550.3000, -80.296
1550.4000, -87.980
1550.5000, -80.842
1550.6000, -85.203
1550.7000, -85.615
1550.8000, -82.077
1550.9000, -92.707
1551.0000, -80.004
1551.1000,-210.000
1551.2000, -82.954
1551.3000, -83.471
1551.4000, -83.915
1551.5000, -83.396
1551.6000, -83.232
1551.7000, -82.710
1551.8000, -85.632
1551.9000, -82.942
1552.0000, -81.859
1552.1000, -80.499
1552.2000, -83.031
1552.3000, -85.130
1552.4000, -85.895
1552.5000, -85.114
1552.6000, -84.560
1552.7000, -85.861
1552.8000, -82.837
1552.9000, -81.905
1553.0000, -86.668
1553.1000, -81.652
1553.2000, -83.240
1553.3000, -81.777
1553.4000, -84.416
1553.5000, -83.297
1553.6000, -84.869
1553.7000, -83.528
1553.8000, -84.111
1553.9000, -83.413
1554.0000, -83.074
1554.1000, -83.264
1554.2000, -81.892
1554.3000, -80.937
1554.4000, -82.793
1554.5000,-210.000
1554.6000, -93.869
1554.7000, -84.206
1554.8000, -80.100
1554.9000,-210.000
1555.0000, -82.204
1555.1000, -83.202
1555.2000, -83.165
1555.3000, -84.107
1555.4000, -84.387
1555.5000, -82.266
1555.6000, -82.956
1555.7000, -84.018
1555.8000, -82.857
1555.9000, -83.296
1556.0000, -85.939
1556.1000, -80.939
1556.2000, -84.345
1556.3000, -85.838
1556.4000, -81.696
1556.5000, -83.288
1556.6000, -82.613
1556.7000, -81.541
1556.8000, -84.758
1556.9000, -82.000
1557.0000, -86.684
1557.1000, -81.558
1557.2000, -81.796
1557.3000, -82.187
1557.4000, -83.757
1557.5000, -81.950
1557.6000, -83.577
1557.7000, -80.713
1557.8000, -89.384
1557.9000, -84.269
1558.0000, -81.779
1558.1000, -82.678
1558.2000, -83.661
1558.3000, -82.477
1558.4000, -84.449
1558.5000, -83.491
1558.6000, -81.791
1558.7000, -85.143
1558.8000, -82.604
1558.9000, -82.388
1559.0000, -83.649
1559.1000, -82.880
1559.2000, -82.927
1559.3000, -85.381
1559.4000, -85.371
1559.5000, -83.173
1559.6000, -80.770
1559.7000,-210.000
1559.8000, -81.941
1559.9000, -82.506
1560.0000, -83.902
1560.1000, -83.145
1560.2000, -85.041
1560.3000, -81.713
1560.4000, -81.582
1560.5000, -82.314
1560.6000, -81.809
1560.7000, -87.767
1560.8000, -80.911
1560.9000, -85.571
1561.0000, -84.951
1561.1000, -83.870
1561.2000, -81.817
1561.3000, -85.135
1561.4000, -85.905
1561.5000, -80.896
1561.6000, -84.433
1561.7000, -82.868
1561.8000, -87.267
1561.9000, -83.070
1562.0000, -84.447
1562.1000, -83.352
1562.2000, -81.076
1562.3000, -82.566
1562.4000, -84.055
1562.5000, -83.638
1562.6000, -83.314
1562.7000, -81.445
1562.8000, -87.035
1562.9000, -83.449
1563.0000, -82.198
1563.1000, -82.655
1563.2000, -82.713
1563.3000, -83.798
1563.4000, -82.513
1563.5000, -82.898
1563.6000, -82.678
1563.7000, -82.165
1563.8000, -83.004
1563.9000, -86.930
1564.0000, -80.800
1564.1000, -81.140
1564.2000, -86.626
1564.3000, -83.489
1564.4000, -83.448
1564.5000, -85.124
1564.6000, -80.909
1564.7000,-210.000
1564.8000, -81.751
1564.9000, -84.706
1565.0000, -83.053
1565.1000, -88.533
1565.2000, -78.308
1565.3000, -81.643
1565.4000, -84.334
1565.5000, -88.493
1565.6000, -81.039
1565.7000, -80.501
1565.8000, -86.898
1565.9000, -83.599
1566.0000, -84.950
1566.1000, -88.835
1566.2000, -84.126
1566.3000, -82.232
1566.4000, -82.707
1566.5000, -83.743
1566.6000, -81.776
1566.7000, -80.806
1566.8000, -79.896
1566.9000, -84.517
1567.0000, -88.868
1567.1000, -82.537
1567.2000, -83.080
1567.3000, -84.842
1567.4000, -85.088
1567.5000, -81.905
1567.6000, -80.229
1567.7000,-210.000
1567.8000, -85.091
1567.9000, -85.153
1568.0000, -84.437
1568.1000, -83.613
1568.2000, -82.335
1568.3000, -84.334
1568.4000, -88.962
1568.5000, -83.905
1568.6000, -81.953
1568.7000, -81.945
1568.8000, -84.296
1568.9000, -81.280
1569.0000, -83.571
1569.1000, -82.295
1569.2000, -81.411
1569.3000, -86.947
1569.4000, -83.022
1569.5000, -82.084
1569.6000, -85.630
1569.7000, -83.330
1569.8000, -81.357
1569.9000, -84.374
1570.0000, -83.463
1570.1000, -82.475
1570.2000, -83.352
1570.3000, -82.423
1570.4000, -82.722
1570.5000, -82.347
1570.6000, -88.533
1570.7000, -81.976
1570.8000, -83.903
1570.9000, -81.616
1571.0000, -84.809
1571.1000, -84.199
1571.2000, -82.328
1571.3000, -82.789
1571.4000, -82.806
1571.5000, -81.864
1571.6000, -83.381
1571.7000, -82.131
1571.8000, -82.504
1571.9000, -84.443
1572.0000, -80.042
1572.1000, -86.757
1572.2000, -85.873
1572.3000, -85.778
1572.4000, -81.170
1572.5000, -82.305
1572.6000, -81.939
1572.7000, -85.845
1572.8000, -83.379
1572.9000, -84.789
1573.0000, -83.416
1573.1000, -83.560
1573.2000, -81.768
1573.3000, -83.092
1573.4000, -81.452
1573.5000, -82.634
1573.6000, -83.993
1573.7000, -84.276
1573.8000, -82.252
1573.9000, -84.758
1574.0000, -80.153
1574.1000, -85.100
1574.2000, -81.143
1574.3000, -82.177
1574.4000, -82.800
1574.5000, -82.931
1574.6000, -80.583
1574.7000, -83.357
1574.8000, -81.480
1574.9000, -83.019
1575.0000, -83.028
1575.1000, -82.808
1575.2000, -81.536
1575.3000, -80.212
1575.4000, -85.306
1575.5000, -81.819
1575.6000, -80.638
1575.7000, -86.554
1575.8000, -83.338
1575.9000, -83.868
1576.0000, -83.845
1576.1000, -81.085
1576.2000, -87.050
1576.3000, -83.870
1576.4000, -84.536
1576.5000, -81.615
1576.6000, -80.827
1576.7000, -86.437
1576.8000, -82.325
1576.9000, -82.892
1577.0000, -83.955
1577.1000, -84.396
1577.2000, -83.134
1577.3000, -87.268
1577.4000, -84.316
1577.5000, -82.935
1577.6000, -81.375
1577.7000, -84.595
1577.8000, -81.427
1577.9000, -83.023
1578.0000, -82.797
1578.1000, -82.366
1578.2000,-210.000
1578.3000, -80.841
1578.4000, -83.682
1578.5000, -81.040
1578.6000, -83.451
1578.7000, -86.496
1578.8000, -80.328
1578.9000, -82.983
1579.0000, -86.565
1579.1000, -80.588
1579.2000, -86.154
1579.3000, -82.891
1579.4000, -80.233
1579.5000, -83.513
1579.6000, -81.479
1579.7000, -82.360
1579.8000, -87.454
1579.9000, -82.237
1580.0000, -81.887
1580.1000, -82.172
1580.2000, -83.839
1580.3000,-210.000
1580.4000, -80.537
1580.5000, -82.479
1580.6000, -81.633
1580.7000, -82.980
1580.8000, -81.161
1580.9000, -83.490
1581.0000, -82.797
1581.1000, -81.739
1581.2000, -81.917
1581.3000, -81.752
1581.4000, -82.079
1581.5000, -81.848
1581.6000, -84.035
1581.7000, -83.412
1581.8000, -82.127
1581.9000,-210.000
1582.0000, -80.343
1582.1000, -80.852
1582.2000, -83.434
1582.3000, -82.604
1582.4000, -81.942
1582.5000, -83.834
1582.6000, -83.028
1582.7000, -82.709
1582.8000, -83.210
1582.9000, -81.564
1583.0000, -83.023
1583.1000, -85.428
1583.2000, -82.162
1583.3000,-210.000
1583.4000, -76.390
1583.5000,-210.000
1583.6000, -79.362
1583.7000, -79.755
1583.8000, -86.565
1583.9000, -83.901
1584.0000, -81.796
1584.1000, -82.058
1584.2000, -80.119
1584.3000, -97.558
1584.4000, -82.668
1584.5000, -84.315
1584.6000, -82.871
1584.7000, -81.502
1584.8000, -83.442
1584.9000, -86.793
1585.0000, -80.187
1585.1000, -81.375
1585.2000, -85.662
1585.3000, -81.888
1585.4000, -84.021
1585.5000, -83.224
1585.6000, -80.716
1585.7000, -82.873
1585.8000, -82.490
1585.9000, -83.665
1586.0000, -81.924
1586.1000, -82.533
1586.2000, -87.172
1586.3000, -79.985
1586.4000, -83.235
1586.5000, -82.129
1586.6000, -81.691
1586.7000, -89.377
1586.8000, -80.015
1586.9000,-210.000
1587.0000, -81.661
1587.1000, -87.249
1587.2000, -80.857
1587.3000, -85.543
1587.4000, -84.007
1587.5000, -87.596
1587.6000, -77.365
1587.7000,-210.000
1587.8000, -86.086
1587.9000, -84.873
1588.0000, -85.181
1588.1000, -81.821
1588.2000, -85.654
1588.3000, -81.286
1588.4000, -81.141
1588.5000, -85.320
1588.6000, -82.051
1588.7000, -80.854
1588.8000, -82.894
1588.9000, -81.080
1589.0000, -81.865
1589.1000, -82.291
1589.2000, -81.480
1589.3000, -80.992
1589.4000, -82.604
1589.5000, -79.431
1589.6000, -80.560
1589.7000,-210.000
1589.8000, -82.958
1589.9000, -82.029
1590.0000, -81.620
1590.1000, -82.371
1590.2000, -84.265
1590.3000, -81.978
1590.4000, -79.360
1590.5000, -81.606
1590.6000, -80.713
1590.7000, -89.775
1590.8000, -81.235
1590.9000, -88.048
1591.0000, -80.046
1591.1000, -86.215
1591.2000, -80.974
1591.3000, -80.935
1591.4000, -83.442
1591.5000, -83.192
1591.6000, -81.135
1591.7000, -84.237
1591.8000, -85.227
1591.9000, -83.012
1592.0000, -79.738
1592.1000, -93.732
1592.2000, -80.494
1592.3000, -82.050
1592.4000,-210.000
1592.5000, -83.215
1592.6000, -84.580
1592.7000, -80.507
1592.8000, -80.974
1592.9000, -87.880
1593.0000, -84.213
1593.1000, -78.949
1593.2000, -89.080
1593.3000, -86.260
1593.4000, -79.882
1593.5000, -82.415
1593.6000, -85.121
1593.7000, -80.932
1593.8000, -82.157
1593.9000, -82.302
1594.0000, -84.895
1594.1000, -82.540
1594.2000, -82.024
1594.3000, -80.596
1594.4000, -83.976
1594.5000, -86.359
1594.6000, -82.930
1594.7000, -83.141
1594.8000, -84.674
1594.9000, -83.069
1595.0000, -81.360
1595.1000, -83.223
1595.2000, -82.671
1595.3000, -82.192
1595.4000, -81.620
1595.5000, -83.507
1595.6000, -83.519
1595.7000, -85.504
1595.8000, -80.866
1595.9000, -83.063
1596.0000, -87.120
1596.1000, -79.087
1596.2000, -89.565
1596.3000, -84.112
1596.4000, -87.664
1596.5000, -81.955
1596.6000, -81.478
1596.7000, -80.788
1596.8000, -82.271
1596.9000, -79.547
1597.0000, -97.800
1597.1000, -81.830
1597.2000, -82.726
1597.3000, -83.350
1597.4000, -79.733
1597.5000, -82.284
1597.6000, -82.173
1597.7000, -81.275
1597.8000, -81.822
1597.9000, -83.756
1598.0000, -92.068
1598.1000, -80.942
1598.2000, -81.412
1598.3000,-210.000
1598.4000, -80.532
1598.5000, -80.778
1598.6000, -82.527
1598.7000, -83.698
1598.8000, -87.366
1598.9000, -81.771
1599.0000, -80.394
1599.1000, -82.710
1599.2000, -80.729
1599.3000, -84.455
1599.4000, -80.385
1599.5000, -82.390
1599.6000, -79.901
1599.7000, -86.896
1599.8000, -83.194
1599.9000, -86.073
1600.0000, -80.405
1600.1000, -83.640
1600.2000, -80.122
1600.3000, -86.440
1600.4000, -81.610
1600.5000, -81.835
1600.6000, -82.730
1600.7000, -83.962
1600.8000, -82.589
1600.9000, -82.505
1601.0000, -81.226
1601.1000, -82.230
1601.2000, -84.510
1601.3000, -85.140
1601.4000, -82.477
1601.5000, -80.213
1601.6000, -79.822
1601.7000,-210.000
1601.8000, -80.159
1601.9000, -82.943
1602.0000, -82.144
1602.1000, -82.359
1602.2000, -81.980
1602.3000, -82.243
1602.4000, -82.965
1602.5000, -81.804
1602.6000, -81.410
1602.7000, -85.032
1602.8000, -80.875
1602.9000, -80.310
1603.0000, -82.233
1603.1000, -81.420
1603.2000, -81.399
1603.3000, -86.257
1603.4000, -83.032
1603.5000, -83.458
1603.6000, -80.181
1603.7000, -83.802
1603.8000, -83.005
1603.9000, -83.092
1604.0000, -81.219
1604.1000, -81.711
1604.2000, -83.659
1604.3000, -86.965
1604.4000, -81.429
1604.5000, -81.878
1604.6000, -91.492
1604.7000, -82.556
1604.8000, -81.277
1604.9000, -83.535
1605.0000, -81.046
1605.1000, -81.480
1605.2000, -81.457
1605.3000, -81.291
1605.4000, -81.997
1605.5000, -81.586
1605.6000, -84.239
1605.7000, -80.943
1605.8000, -83.056
1605.9000, -79.141
1606.0000,-210.000
1606.1000, -81.538
1606.2000, -80.825
1606.3000, -79.799
1606.4000,-210.000
1606.5000, -79.740
1606.6000, -82.022
1606.7000, -79.290
1606.8000, -84.174
1606.9000, -78.536
1607.0000,-210.000
1607.1000, -82.895
1607.2000, -83.939
1607.3000, -77.638
1607.4000,-210.000
1607.5000, -81.748
1607.6000, -83.058
1607.7000, -85.530
1607.8000, -82.200
1607.9000, -82.055
1608.0000, -80.085
1608.1000, -82.322
1608.2000, -83.316
1608.3000, -82.544
1608.4000, -81.833
1608.5000, -83.637
1608.6000, -80.060
1608.7000, -79.394
1608.8000, -79.516
1608.9000,-210.000
1609.0000, -82.768
1609.1000, -81.141
1609.2000, -79.382
1609.3000, -81.798
1609.4000, -81.692
1609.5000, -81.950
1609.6000, -81.699
1609.7000, -82.780
1609.8000, -82.971
1609.9000, -80.240
1610.0000, -81.175
1610.1000, -81.188
1610.2000, -83.016
1610.3000, -80.369
1610.4000, -80.453
1610.5000, -83.067
1610.6000, -82.000
1610.7000, -81.535
1610.8000, -82.826
1610.9000, -80.167
1611.0000, -77.770
1611.1000,-210.000
1611.2000, -80.470
1611.3000, -79.766
1611.4000, -81.996
1611.5000, -83.385
1611.6000, -80.896
1611.7000, -84.320
1611.8000, -80.743
1611.9000, -82.721
1612.0000, -80.896
1612.1000, -84.630
1612.2000, -80.936
1612.3000, -79.960
1612.4000, -84.686
1612.5000, -82.842
1612.6000, -81.474
1612.7000, -79.182
1612.8000, -79.928
1612.9000, -85.759
1613.0000, -80.694
1613.1000, -82.981
1613.2000, -81.014
1613.3000, -80.745
1613.4000, -82.689
1613.5000, -84.259
1613.6000, -80.379
1613.7000, -82.266
1613.8000, -81.437
1613.9000, -82.449
1614.0000, -78.135
1614.1000, -85.454
1614.2000, -81.887
1614.3000, -83.086
1614.4000, -82.111
1614.5000, -81.145
1614.6000, -79.259
1614.7000, -81.117
1614.8000, -84.178
1614.9000, -81.108
1615.0000, -79.700
1615.1000, -80.804
1615.2000, -88.884
1615.3000, -80.994
1615.4000, -81.518
1615.5000, -80.064
1615.6000, -80.352
1615.7000, -81.187
1615.8000, -83.147
1615.9000, -80.538
1616.0000, -83.005
1616.1000, -80.624
1616.2000, -81.697
1616.3000, -82.722
1616.4000, -93.637
1616.5000, -79.310
1616.6000, -83.691
1616.7000, -81.666
1616.8000, -81.523
1616.9000, -79.210
1617.0000, -81.377
1617.1000, -83.642
1617.2000, -83.308
1617.3000, -77.408
1617.4000, -84.788
1617.5000, -83.815
1617.6000, -80.598
1617.7000, -78.589
1617.8000, -85.076
1617.9000, -80.938
1618.0000, -83.998
1618.1000, -81.156
1618.2000, -77.623
1618.3000, -79.719
1618.4000, -80.289
1618.5000, -83.798
1618.6000, -81.873
1618.7000, -79.428
1618.8000, -82.007
1618.9000, -80.837
1619.0000, -80.722
1619.1000, -79.385
1619.2000, -80.906
1619.3000, -81.298
1619.4000, -80.677
1619.5000, -81.878
1619.6000, -79.342
1619.7000, -79.555
1619.8000, -80.878
1619.9000, -80.230
1620.0000, -79.875
1620.1000, -81.565
1620.2000, -80.351
1620.3000, -85.641
1620.4000, -80.553
1620.5000, -80.856
1620.6000, -81.215
1620.7000, -82.933
1620.8000, -79.595
1620.9000, -82.045
1621.0000, -80.300
1621.1000, -80.764
1621.2000, -82.640
1621.3000, -78.021
1621.4000, -78.866
1621.5000,-210.000
1621.6000, -77.013
1621.7000, -80.061
1621.8000, -90.400
1621.9000, -80.590
1622.0000, -78.128
1622.1000, -80.340
1622.2000, -83.734
1622.3000, -82.800
1622.4000, -84.802
1622.5000, -81.808
1622.6000, -82.339
1622.7000, -77.205
1622.8000,-210.000
1622.9000,-210.000
1623.0000, -78.860
1623.1000, -81.018
1623.2000, -82.572
1623.3000, -81.178
1623.4000, -79.211
1623.5000, -82.020
1623.6000, -85.610
1623.7000, -81.096
1623.8000, -79.310
1623.9000, -79.178
1624.0000, -87.877
1624.1000, -82.170
1624.2000, -80.623
1624.3000, -80.912
1624.4000, -80.543
1624.5000, -78.622
1624.6000, -95.863
1624.7000, -78.577
1624.8000, -80.175
1624.9000, -80.187
1625.0000, -83.007
1625.1000, -77.821
1625.2000, -85.543
1625.3000, -79.581
1625.4000, -84.803
1625.5000, -77.859
1625.6000, -82.880
1625.7000, -79.932
1625.8000, -79.132
1625.9000, -80.725
1626.0000, -83.816
1626.1000, -80.363
1626.2000, -79.545
1626.3000, -81.412
1626.4000, -83.329
1626.5000, -79.946
1626.6000, -86.228
1626.7000, -85.792
1626.8000, -79.710
1626.9000, -80.683
1627.0000, -81.095
1627.1000, -77.471
1627.2000, -80.989
1627.3000, -81.744
1627.4000, -81.028
1627.5000, -80.967
1627.6000, -81.332
1627.7000, -83.215
1627.8000, -78.293
1627.9000, -80.926
1628.0000, -78.836
1628.1000, -78.825
1628.2000, -81.906
1628.3000, -79.280
1628.4000, -81.123
1628.5000, -80.386
1628.6000, -81.315
1628.7000, -79.564
1628.8000, -79.313
1628.9000, -81.320
1629.0000, -79.112
1629.1000, -81.599
1629.2000, -79.080
1629.3000, -79.416
1629.4000, -85.866
1629.5000, -79.828
1629.6000, -78.286
1629.7000, -78.201
1629.8000, -81.353
1629.9000, -89.949
1630.0000, -78.899
1630.1000,-210.000
1630.2000, -75.920
1630.3000, -82.187
1630.4000, -76.964
1630.5000,-210.000
1630.6000, -78.499
1630.7000, -83.123
1630.8000, -76.547
1630.9000, -81.026
1631.0000, -83.554
1631.1000, -82.719
1631.2000, -79.316
1631.3000, -81.158
1631.4000, -77.943
1631.5000, -78.703
1631.6000, -84.335
1631.7000, -81.423
1631.8000, -79.289
1631.9000, -79.621
1632.0000, -79.714
1632.1000, -81.260
1632.2000, -80.353
1632.3000, -79.154
1632.4000, -79.112
1632.5000, -78.528
1632.6000, -79.460
1632.7000, -77.297
1632.8000, -85.596
1632.9000, -77.054
1633.0000, -79.400
1633.1000, -80.320
1633.2000, -79.861
1633.3000, -79.471
1633.4000, -82.774
1633.5000, -78.850
1633.6000, -90.379
1633.7000, -79.615
1633.8000, -81.281
1633.9000, -78.644
1634.0000, -78.183
1634.1000, -79.899
1634.2000, -78.650
1634.3000, -83.646
1634.4000, -76.094
1634.5000, -90.892
1634.6000, -78.764
1634.7000, -78.589
1634.8000, -84.524
1634.9000, -78.306
1635.0000, -82.324
1635.1000, -78.465
1635.2000, -81.662
1635.3000, -78.011
1635.4000,-210.000
1635.5000, -78.652
1635.6000, -78.217
1635.7000, -81.702
1635.8000, -77.784
1635.9000, -81.033
1636.0000, -82.480
1636.1000, -77.548
1636.2000, -76.400
1636.3000,-210.000
1636.4000, -77.767
1636.5000, -79.338
1636.6000, -77.308
1636.7000,-210.000
1636.8000, -77.520
1636.9000, -81.678
1637.0000, -78.760
1637.1000, -78.027
1637.2000, -80.860
1637.3000, -79.186
1637.4000, -78.099
1637.5000, -77.894
1637.6000, -78.628
1637.7000, -79.377
1637.8000, -79.935
1637.9000, -78.636
1638.0000, -79.696
1638.1000, -77.270
1638.2000, -81.643
1638.3000, -83.575
1638.4000, -76.630
1638.5000, -80.230
1638.6000, -75.788
1638.7000,-210.000
1638.8000, -81.817
1638.9000, -77.540
1639.0000, -77.509
1639.1000, -84.096
1639.2000, -77.569
1639.3000, -80.256
1639.4000, -78.255
1639.5000, -81.022
1639.6000, -80.244
1639.7000, -77.925
1639.8000, -77.518
1639.9000, -78.443
1640.0000, -84.665
1640.1000, -78.319
1640.2000, -76.778
1640.3000, -80.421
1640.4000, -78.594
1640.5000, -77.605
1640.6000, -78.836
1640.7000, -77.855
1640.8000, -77.756
1640.9000, -78.117
1641.0000, -78.743
1641.1000, -77.151
1641.2000, -78.053
1641.3000, -80.078
1641.4000, -77.569
1641.5000, -78.085
1641.6000, -79.347
1641.7000, -76.307
1641.8000,-210.000
1641.9000, -74.823
1642.0000, -79.415
1642.1000, -78.518
1642.2000, -77.684
1642.3000, -76.706
1642.4000, -78.293
1642.5000, -77.124
1642.6000, -80.821
1642.7000, -76.911
1642.8000, -76.923
1642.9000, -76.498
1643.0000, -79.759
1643.1000, -76.785
1643.2000, -77.068
1643.3000, -79.784
1643.4000, -77.852
1643.5000, -76.751
1643.6000, -79.313
1643.7000, -80.044
1643.8000, -77.128
1643.9000, -77.340
1644.0000, -76.693
1644.1000, -78.439
1644.2000, -76.909
1644.3000, -78.396
1644.4000, -76.941
1644.5000, -76.955
1644.6000, -79.329
1644.7000, -76.543
1644.8000, -80.099
1644.9000, -81.432
1645.0000, -75.807
1645.1000, -75.829
1645.2000, -76.797
1645.3000, -76.888
1645.4000, -78.219
1645.5000, -78.933
1645.6000, -76.979
1645.7000, -78.411
1645.8000, -77.144
1645.9000, -77.186
1646.0000, -76.810
1646.1000, -79.290
1646.2000, -77.674
1646.3000, -77.630
1646.4000, -74.959
1646.5000, -78.575
1646.6000, -76.413
1646.7000, -80.000
1646.8000, -75.381
1646.9000, -76.589
1647.0000,-210.000
1647.1000, -72.021
1647.2000, -82.234
1647.3000, -74.270
1647.4000, -77.636
1647.5000, -74.701
1647.6000, -77.705
1647.7000, -73.877
1647.8000, -77.539
1647.9000, -78.596
1648.0000, -75.288
1648.1000, -80.434
1648.2000, -74.895
1648.3000, -78.522
1648.4000, -74.534
1648.5000, -78.398
1648.6000, -75.760
1648.7000, -75.571
1648.8000, -75.430
1648.9000, -75.447
1649.0000, -76.956
1649.1000, -77.706
1649.2000, -76.556
1649.3000, -75.094
1649.4000, -77.851
1649.5000, -74.257
1649.6000, -76.004
1649.7000, -76.531
1649.8000, -75.642
1649.9000, -76.254
1650.0000, -73.854
1650.1000, -76.449
1650.2000, -74.129
1650.3000, -77.649
1650.4000, -74.910
1650.5000, -76.592
1650.6000, -71.857
1650.7000,-210.000
1650.8000, -72.897
1650.9000, -76.819
1651.0000, -74.123
1651.1000, -74.046
1651.2000, -75.905
1651.3000, -75.786
1651.4000, -75.039
1651.5000, -73.994
1651.6000, -74.816
1651.7000, -76.569
1651.8000, -76.535
1651.9000, -74.305
1652.0000, -75.840
1652.1000, -75.148
1652.2000, -73.671
1652.3000, -74.023
1652.4000, -74.356
1652.5000, -77.235
1652.6000, -74.214
1652.7000, -74.258
1652.8000, -72.736
1652.9000, -86.511
1653.0000, -73.312
1653.1000, -74.464
1653.2000,-210.000
1653.3000, -72.687
1653.4000,-210.000
1653.5000, -75.333
1653.6000, -72.574
1653.7000, -80.674
1653.8000, -75.421
1653.9000, -72.793
1654.0000, -86.120
1654.1000, -75.508
1654.2000, -75.426
1654.3000, -76.851
1654.4000, -76.099
1654.5000, -72.871
1654.6000, -74.476
1654.7000, -73.870
1654.8000, -72.760
1654.9000, -74.573
1655.0000, -71.909
1655.1000, -85.030
1655.2000, -75.254
1655.3000, -71.492
1655.4000, -77.442
1655.5000, -71.830
1655.6000, -75.605
1655.7000, -74.896
1655.8000, -74.184
1655.9000, -75.933
1656.0000, -74.348
1656.1000, -71.546
1656.2000, -76.022
1656.3000, -72.150
1656.4000, -78.476
1656.5000, -72.016
1656.6000, -73.631
1656.7000, -74.088
1656.8000, -74.156
1656.9000, -75.139
1657.0000, -73.781
1657.1000, -75.562
1657.2000, -71.343
1657.3000,-210.000
1657.4000, -70.403
1657.5000, -76.058
1657.6000, -71.320
1657.7000, -72.956
1657.8000, -80.143
1657.9000, -73.325
1658.0000, -72.338
1658.1000, -75.763
1658.2000, -72.305
1658.3000, -76.308
1658.4000, -74.057
1658.5000, -71.744
1658.6000, -74.182
1658.7000, -73.453
1658.8000, -72.587
1658.9000, -76.318
1659.0000, -72.355
1659.1000, -73.268
1659.2000, -70.079
1659.3000, -74.697
1659.4000, -71.665
1659.5000, -76.431
1659.6000, -75.688
1659.7000, -73.204
1659.8000, -73.639
1659.9000, -73.829
1660.0000, -72.780
1660.1000, -74.983
1660.2000, -75.699
1660.3000, -72.235
1660.4000, -73.317
1660.5000, -71.709
1660.6000, -71.663
1660.7000, -74.361
1660.8000, -74.087
1660.9000, -70.629
1661.0000, -77.310
1661.1000, -72.998
1661.2000, -73.923
1661.3000, -73.008
1661.4000, -71.003
1661.5000, -73.294
1661.6000,-210.000
1661.7000, -70.219
1661.8000, -75.455
1661.9000, -71.445
1662.0000, -79.056
1662.1000, -73.409
1662.2000, -71.004
1662.3000, -72.323
1662.4000, -71.353
1662.5000, -74.827
1662.6000, -70.132
1662.7000, -72.147
1662.8000, -72.998
1662.9000, -71.975
1663.0000, -72.600
1663.1000, -71.183
1663.2000, -74.469
1663.3000, -71.310
1663.4000, -71.055
1663.5000,-210.000
1663.6000, -69.650
1663.7000, -75.394
1663.8000, -70.329
1663.9000, -68.920
1664.0000, -74.851
1664.1000, -68.992
1664.2000, -78.308
1664.3000, -78.990
1664.4000, -70.955
1664.5000, -73.866
1664.6000, -70.988
1664.7000, -71.782
1664.8000, -71.334
1664.9000, -69.804
1665.0000,-210.000
1665.1000, -70.416
1665.2000,-210.000
1665.3000, -72.641
1665.4000, -70.637
1665.5000, -75.349
1665.6000, -75.476
1665.7000, -70.203
1665.8000, -73.339
1665.9000, -72.230
1666.0000, -69.672
1666.1000, -72.394
1666.2000, -71.338
1666.3000, -73.741
1666.4000, -78.899
1666.5000, -68.003
1666.6000, -74.364
1666.7000,-210.000
1666.8000, -68.361
1666.9000, -77.059
1667.0000, -78.360
1667.1000, -68.471
1667.2000, -73.801
1667.3000, -73.652
1667.4000, -74.414
1667.5000, -71.268
1667.6000, -71.836
1667.7000, -70.275
1667.8000, -69.943
1667.9000, -70.672
1668.0000, -69.419
1668.1000, -73.909
1668.2000, -69.221
1668.3000, -72.204
1668.4000, -68.859
1668.5000, -72.976
1668.6000, -71.099
1668.7000, -69.636
1668.8000, -72.763
1668.9000, -71.160
1669.0000, -69.401
1669.1000, -75.228
1669.2000, -69.761
1669.3000, -70.305
1669.4000, -73.032
1669.5000, -68.389
1669.6000, -68.554
1669.7000,-210.000
1669.8000, -68.708
1669.9000, -70.627
1670.0000, -72.445
1670.1000, -68.885
1670.2000, -71.341
1670.3000, -69.634
1670.4000, -67.596
1670.5000,-210.000
1670.6000, -72.075
1670.7000, -69.955
1670.8000, -70.273
1670.9000, -70.999
1671.0000, -71.754
1671.1000, -66.427
1671.2000, -71.510
1671.3000, -70.587
1671.4000,-210.000
1671.5000, -67.488
1671.6000, -71.429
1671.7000, -69.391
1671.8000, -69.613
1671.9000, -67.481
1672.0000, -71.932
1672.1000, -70.997
1672.2000, -68.326
1672.3000, -71.450
1672.4000, -69.874
1672.5000, -71.409
1672.6000, -70.012
1672.7000, -69.700
1672.8000, -69.657
1672.9000, -70.783
1673.0000, -69.895
1673.1000, -71.215
1673.2000, -67.838
1673.3000, -70.490
1673.4000, -71.284
1673.5000, -68.129
1673.6000, -70.569
1673.7000, -70.818
1673.8000, -68.026
1673.9000, -71.920
1674.0000, -71.450
1674.1000, -70.164
1674.2000, -70.032
1674.3000, -67.927
1674.4000, -69.460
1674.5000, -73.813
1674.6000, -69.161
1674.7000, -69.326
1674.8000, -75.488
1674.9000, -67.781
1675.0000, -72.418
1675.1000, -68.617
1675.2000, -70.892
1675.3000, -69.167
1675.4000, -80.973
1675.5000, -68.639
1675.6000, -69.387
1675.7000, -69.635
1675.8000, -68.891
1675.9000, -72.414
1676.0000, -67.137
1676.1000, -69.767
1676.2000, -67.112
1676.3000, -69.420
1676.4000, -73.144
1676.5000, -70.849
1676.6000, -68.692
1676.7000, -68.745
1676.8000, -68.595
1676.9000, -70.760
1677.0000, -67.721
1677.1000, -71.457
1677.2000, -68.983
1677.3000, -68.772
1677.4000, -72.622
1677.5000, -68.934
1677.6000, -68.539
1677.7000, -69.501
1677.8000, -70.449
1677.9000, -67.176
1678.0000, -67.239
1678.1000, -69.794
1678.2000, -69.984
1678.3000, -69.701
1678.4000, -68.517
1678.5000, -69.710
1678.6000, -69.250
1678.7000, -68.859
1678.8000, -65.143
1678.9000,-210.000
1679.0000, -67.635
1679.1000, -67.837
1679.2000, -69.721
1679.3000, -66.576
1679.4000, -71.772
1679.5000, -68.255
1679.6000, -67.646
1679.7000, -66.598
1679.8000, -67.706
1679.9000, -70.286
1680.0000, -67.151
1680.1000, -69.383
1680.2000, -69.564
1680.3000, -68.834
1680.4000, -65.446
1680.5000, -66.527
1680.6000, -69.881
1680.7000, -67.368
1680.8000, -68.064
1680.9000, -67.943
1681.0000, -77.422
1681.1000, -66.251
1681.2000, -69.043
1681.3000, -66.957
1681.4000, -66.865
1681.5000, -66.582
1681.6000, -67.035
1681.7000, -65.501
1681.8000, -80.470
1681.9000, -65.022
1682.0000, -71.724
1682.1000, -70.303
1682.2000, -66.387
1682.3000, -68.641
1682.4000, -69.098
1682.5000, -68.292
1682.6000, -66.300
1682.7000, -67.823
1682.8000, -66.298
1682.9000, -67.741
1683.0000, -66.389
1683.1000, -67.191
1683.2000, -65.637
1683.3000, -70.365
1683.4000, -65.992
1683.5000, -67.587
1683.6000, -67.441
1683.7000, -66.576
1683.8000, -68.616
1683.9000, -67.557
1684.0000, -68.861
1684.1000, -65.901
1684.2000, -67.822
1684.3000, -65.689
1684.4000, -71.895
1684.5000, -66.480
1684.6000, -66.316
1684.7000, -66.898
1684.8000, -69.278
1684.9000, -66.161
1685.0000, -65.393
1685.1000, -67.603
1685.2000, -70.333
1685.3000, -66.599
1685.4000, -65.261
1685.5000, -66.031
1685.6000, -66.686
1685.7000, -69.210
1685.8000, -65.899
1685.9000, -66.969
1686.0000, -67.331
1686.1000, -65.393
1686.2000, -66.478
1686.3000, -66.048
1686.4000, -65.945
1686.5000, -68.680
1686.6000, -67.637
1686.7000, -65.640
1686.8000, -63.928
1686.9000, -67.545
1687.0000, -67.562
1687.1000, -65.020
1687.2000, -67.488
1687.3000, -68.286
1687.4000, -65.799
1687.5000, -66.875
1687.6000, -66.635
1687.7000, -64.998
1687.8000, -66.985
1687.9000, -65.481
1688.0000, -68.527
1688.1000, -65.474
1688.2000, -65.202
1688.3000, -66.958
1688.4000, -64.312
1688.5000, -67.133
1688.6000, -64.892
1688.7000, -66.875
1688.8000, -67.647
1688.9000, -67.537
1689.0000, -64.914
1689.1000, -67.616
1689.2000, -65.345
1689.3000, -65.430
1689.4000, -67.065
1689.5000, -64.974
1689.6000, -65.930
1689.7000, -66.250
1689.8000, -65.891
1689.9000, -64.803
1690.0000, -64.857
1690.1000, -64.597
1690.2000, -67.307
1690.3000, -67.525
1690.4000, -64.202
1690.5000, -68.177
1690.6000, -66.080
1690.7000, -63.685
1690.8000, -67.725
1690.9000, -63.833
1691.0000, -64.979
1691.1000, -67.539
1691.2000, -67.301
1691.3000, -65.351
1691.4000, -63.906
1691.5000, -64.898
1691.6000, -63.722
1691.7000, -65.498
1691.8000, -66.062
1691.9000, -66.913
1692.0000, -65.953
1692.1000, -64.030
1692.2000, -71.721
1692.3000, -64.301
1692.4000, -62.811
1692.5000, -62.058
1692.6000,-210.000
1692.7000, -60.478
1692.8000,-210.000
1692.9000, -62.721
1693.0000, -66.027
1693.1000, -68.906
1693.2000, -63.443
1693.3000, -66.321
1693.4000, -64.737
1693.5000, -64.333
1693.6000, -63.945
1693.7000, -65.285
1693.8000, -63.084
1693.9000, -64.939
1694.0000, -63.935
1694.1000, -65.577
1694.2000, -64.682
1694.3000, -64.039
1694.4000, -65.429
1694.5000, -63.299
1694.6000, -63.874
1694.7000, -65.838
1694.8000, -65.279
1694.9000, -62.596
1695.0000, -64.208
1695.1000, -64.310
1695.2000, -62.838
1695.3000, -64.339
1695.4000, -63.333
1695.5000, -62.782
1695.6000, -66.382
1695.7000, -63.575
1695.8000, -63.042
1695.9000, -64.037
1696.0000, -66.051
1696.1000, -63.435
1696.2000, -63.426
1696.3000, -64.411
1696.4000, -72.676
1696.5000, -61.629
1696.6000, -63.049
1696.7000, -61.201
1696.8000, -65.396
1696.9000, -62.694
1697.0000, -67.431
1697.1000, -62.078
1697.2000, -63.485
1697.3000, -68.244
1697.4000, -64.287
1697.5000, -60.833
1697.6000, -61.762
1697.7000, -62.719
1697.8000, -67.649
1697.9000, -61.076
1698.0000, -63.967
1698.1000, -63.699
1698.2000, -64.409
1698.3000, -66.827
1698.4000, -60.526
1698.5000, -64.311
1698.6000, -64.567
1698.7000, -64.795
1698.8000, -62.205
1698.9000, -63.776
1699.0000, -62.658
1699.1000, -60.927
1699.2000, -62.797
1699.3000, -61.083
1699.4000, -60.883
1699.5000, -61.818
1699.6000, -63.143
1699.7000, -62.369
1699.8000, -63.760
1699.9000, -61.700
1700.0000, -63.520
