70BCSV 	
// AQ6370B OPTICAL SPECTRUM ANALYZER //                 
25
"CTRWL",1300.000000
"SPAN", 800.000000
"START WL", 900.000000
"STOP WL",1700.000000
"WLFREQ", 0
"REFL",-17.2
"LSCL",10.0
"RESLN",0.500
"AVG",   1
"SMPLAUTO",      1
"SMPL",       8001
"SMPLINTVL",0.1000
"HIGH1"
"MEAS"
"LSUNT",0
"NMSKH","OFF"
"RESCOR",0
"RESPARM", 9740
"FREQPARM", 9740






"[TRACE DATA]"
 900.0000, -71.604
 900.1000, -72.132
 900.2000, -69.462
 900.3000, -77.612
 900.4000, -70.225
 900.5000, -73.547
 900.6000, -71.156
 900.7000, -70.852
 900.8000, -72.752
 900.9000, -70.393
 901.0000, -70.931
 901.1000, -71.506
 901.2000, -72.643
 901.3000, -71.040
 901.4000, -71.735
 901.5000, -70.863
 901.6000, -72.802
 901.7000, -70.644
 901.8000, -71.710
 901.9000, -75.859
 902.0000, -72.426
 902.1000, -68.600
 902.2000, -72.580
 902.3000, -71.291
 902.4000, -71.268
 902.5000, -71.563
 902.6000, -72.520
 902.7000, -70.327
 902.8000, -73.269
 902.9000, -69.658
 903.0000, -71.661
 903.1000, -72.247
 903.2000, -71.093
 903.3000, -73.022
 903.4000, -72.243
 903.5000, -72.099
 903.6000, -72.222
 903.7000, -71.182
 903.8000, -71.310
 903.9000, -71.903
 904.0000, -69.375
 904.1000, -72.535
 904.2000, -75.257
 904.3000, -72.741
 904.4000, -71.947
 904.5000, -70.576
 904.6000, -72.788
 904.7000, -74.812
 904.8000, -71.893
 904.9000, -70.017
 905.0000, -74.837
 905.1000, -70.891
 905.2000, -71.293
 905.3000, -74.647
 905.4000, -71.931
 905.5000, -71.147
 905.6000, -74.312
 905.7000, -71.344
 905.8000, -68.696
 905.9000, -80.590
 906.0000, -72.897
 906.1000, -71.153
 906.2000, -72.471
 906.3000, -73.308
 906.4000, -71.896
 906.5000, -71.110
 906.6000, -72.965
 906.7000, -71.311
 906.8000, -72.095
 906.9000, -73.394
 907.0000, -73.458
 907.1000, -71.551
 907.2000, -69.856
 907.3000, -71.790
 907.4000, -71.401
 907.5000, -71.003
 907.6000, -71.368
 907.7000, -71.544
 907.8000, -72.578
 907.9000, -72.891
 908.0000, -72.539
 908.1000, -70.610
 908.2000, -73.275
 908.3000, -70.276
 908.4000, -79.076
 908.5000, -73.752
 908.6000, -71.263
 908.7000, -72.018
 908.8000, -71.543
 908.9000, -72.336
 909.0000, -71.274
 909.1000, -73.537
 909.2000, -72.880
 909.3000, -72.873
 909.4000, -73.938
 909.5000, -76.767
 909.6000, -71.317
 909.7000, -71.716
 909.8000, -75.990
 909.9000, -72.723
 910.0000, -74.195
 910.1000, -72.671
 910.2000, -71.754
 910.3000, -70.765
 910.4000, -70.273
 910.5000, -74.921
 910.6000,-210.000
 910.7000,-210.000
 910.8000, -70.090
 910.9000, -74.363
 911.0000, -71.917
 911.1000, -73.602
 911.2000, -69.472
 911.3000, -75.184
 911.4000, -75.674
 911.5000, -75.703
 911.6000, -72.570
 911.7000, -72.014
 911.8000, -74.608
 911.9000, -74.237
 912.0000, -72.070
 912.1000, -73.103
 912.2000, -74.017
 912.3000, -72.286
 912.4000, -75.380
 912.5000, -71.526
 912.6000, -74.259
 912.7000, -73.075
 912.8000, -73.215
 912.9000, -72.338
 913.0000, -75.060
 913.1000, -73.224
 913.2000, -76.263
 913.3000, -72.530
 913.4000, -72.715
 913.5000, -71.487
 913.6000, -72.540
 913.7000, -73.597
 913.8000, -74.758
 913.9000, -73.634
 914.0000, -73.264
 914.1000, -77.688
 914.2000, -71.501
 914.3000, -73.694
 914.4000, -75.217
 914.5000, -71.955
 914.6000, -75.296
 914.7000, -73.499
 914.8000, -73.847
 914.9000, -73.268
 915.0000, -72.147
 915.1000, -72.252
 915.2000, -80.222
 915.3000, -72.091
 915.4000, -75.041
 915.5000, -73.440
 915.6000, -72.978
 915.7000, -73.085
 915.8000, -72.621
 915.9000, -76.619
 916.0000, -72.603
 916.1000, -72.105
 916.2000, -77.157
 916.3000, -74.341
 916.4000, -70.971
 916.5000, -78.120
 916.6000, -70.936
 916.7000, -73.741
 916.8000, -78.040
 916.9000, -70.881
 917.0000, -73.313
 917.1000, -77.786
 917.2000, -75.940
 917.3000, -78.459
 917.4000, -72.341
 917.5000, -73.844
 917.6000, -74.069
 917.7000, -74.478
 917.8000, -75.116
 917.9000, -75.119
 918.0000, -73.340
 918.1000, -74.139
 918.2000, -74.706
 918.3000, -74.582
 918.4000, -72.209
 918.5000, -74.750
 918.6000, -74.754
 918.7000, -75.804
 918.8000, -77.417
 918.9000, -72.503
 919.0000, -74.056
 919.1000, -71.881
 919.2000,-210.000
 919.3000, -77.995
 919.4000, -74.115
 919.5000, -72.351
 919.6000, -75.585
 919.7000, -74.339
 919.8000, -76.287
 919.9000, -73.415
 920.0000, -72.026
 920.1000, -78.048
 920.2000, -77.917
 920.3000, -72.537
 920.4000, -72.023
 920.5000, -79.400
 920.6000, -73.489
 920.7000, -76.626
 920.8000, -75.330
 920.9000, -75.897
 921.0000, -73.846
 921.1000, -72.173
 921.2000, -72.479
 921.3000, -72.786
 921.4000, -75.493
 921.5000, -75.408
 921.6000, -76.480
 921.7000, -75.791
 921.8000, -75.795
 921.9000, -73.747
 922.0000, -71.644
 922.1000, -76.589
 922.2000, -78.181
 922.3000, -73.561
 922.4000, -75.785
 922.5000, -76.905
 922.6000, -73.516
 922.7000, -74.139
 922.8000, -75.681
 922.9000, -73.488
 923.0000, -77.288
 923.1000, -75.226
 923.2000, -74.806
 923.3000, -73.935
 923.4000, -74.680
 923.5000, -74.698
 923.6000, -74.898
 923.7000, -75.402
 923.8000, -72.375
 923.9000, -77.126
 924.0000, -75.332
 924.1000, -75.975
 924.2000, -73.666
 924.3000, -75.044
 924.4000, -73.285
 924.5000, -74.715
 924.6000, -75.641
 924.7000, -77.289
 924.8000, -74.352
 924.9000, -76.334
 925.0000, -76.958
 925.1000, -76.048
 925.2000, -75.437
 925.3000, -73.842
 925.4000,-210.000
 925.5000, -75.842
 925.6000, -75.364
 925.7000, -72.796
 925.8000, -76.297
 925.9000, -78.061
 926.0000, -74.064
 926.1000, -77.980
 926.2000, -74.344
 926.3000, -73.377
 926.4000, -85.289
 926.5000, -75.415
 926.6000, -77.111
 926.7000, -76.012
 926.8000, -75.411
 926.9000, -76.315
 927.0000, -75.567
 927.1000, -74.949
 927.2000, -74.582
 927.3000, -73.773
 927.4000, -76.848
 927.5000, -74.652
 927.6000, -74.537
 927.7000, -75.105
 927.8000, -75.828
 927.9000, -75.545
 928.0000, -73.912
 928.1000, -74.103
 928.2000, -75.927
 928.3000, -78.250
 928.4000, -74.524
 928.5000, -75.363
 928.6000, -75.769
 928.7000, -74.796
 928.8000, -75.122
 928.9000, -75.249
 929.0000, -75.043
 929.1000, -76.558
 929.2000, -75.130
 929.3000, -77.381
 929.4000, -77.309
 929.5000, -77.054
 929.6000, -77.786
 929.7000, -73.905
 929.8000, -73.673
 929.9000, -77.141
 930.0000, -77.999
 930.1000, -75.455
 930.2000, -78.910
 930.3000, -72.863
 930.4000, -72.799
 930.5000, -82.075
 930.6000, -81.477
 930.7000, -75.722
 930.8000, -73.532
 930.9000, -74.068
 931.0000, -76.976
 931.1000, -73.882
 931.2000, -71.892
 931.3000,-210.000
 931.4000, -74.028
 931.5000, -80.513
 931.6000, -74.073
 931.7000, -74.732
 931.8000, -75.349
 931.9000, -78.175
 932.0000, -79.086
 932.1000, -75.561
 932.2000, -78.046
 932.3000, -75.407
 932.4000, -76.009
 932.5000, -74.131
 932.6000, -79.861
 932.7000, -82.424
 932.8000, -77.567
 932.9000, -74.280
 933.0000, -73.895
 933.1000, -76.548
 933.2000, -74.975
 933.3000, -79.867
 933.4000, -74.600
 933.5000, -77.998
 933.6000, -73.623
 933.7000, -74.713
 933.8000, -83.182
 933.9000, -76.246
 934.0000, -76.467
 934.1000, -77.354
 934.2000, -75.877
 934.3000, -74.234
 934.4000, -73.837
 934.5000, -77.226
 934.6000, -78.828
 934.7000, -78.714
 934.8000, -75.161
 934.9000, -76.117
 935.0000, -73.944
 935.1000, -73.870
 935.2000,-210.000
 935.3000, -76.012
 935.4000, -77.093
 935.5000, -77.955
 935.6000, -76.668
 935.7000, -76.621
 935.8000, -76.744
 935.9000, -74.105
 936.0000, -75.782
 936.1000, -88.737
 936.2000, -74.736
 936.3000, -75.667
 936.4000, -77.390
 936.5000, -77.883
 936.6000, -74.981
 936.7000, -80.000
 936.8000, -77.392
 936.9000, -77.839
 937.0000, -75.928
 937.1000, -80.053
 937.2000, -75.781
 937.3000, -75.771
 937.4000, -77.355
 937.5000, -75.861
 937.6000, -78.208
 937.7000, -76.154
 937.8000, -74.503
 937.9000, -75.757
 938.0000, -76.210
 938.1000, -77.509
 938.2000, -75.577
 938.3000, -74.332
 938.4000, -75.127
 938.5000, -74.426
 938.6000, -75.041
 938.7000, -76.255
 938.8000, -75.577
 938.9000, -74.825
 939.0000, -75.908
 939.1000, -76.247
 939.2000, -75.858
 939.3000, -76.605
 939.4000, -77.298
 939.5000, -74.708
 939.6000, -77.230
 939.7000, -76.925
 939.8000, -78.155
 939.9000, -75.218
 940.0000, -76.564
 940.1000, -77.711
 940.2000, -78.619
 940.3000, -77.413
 940.4000, -75.195
 940.5000, -76.934
 940.6000, -76.269
 940.7000, -76.429
 940.8000, -78.421
 940.9000, -81.221
 941.0000, -75.669
 941.1000, -76.335
 941.2000, -76.073
 941.3000, -76.652
 941.4000, -76.876
 941.5000, -78.332
 941.6000, -75.996
 941.7000, -77.809
 941.8000, -77.307
 941.9000, -74.102
 942.0000, -84.492
 942.1000, -74.202
 942.2000, -75.102
 942.3000, -75.027
 942.4000,-210.000
 942.5000, -81.328
 942.6000, -74.008
 942.7000, -74.191
 942.8000,-210.000
 942.9000, -74.217
 943.0000, -75.593
 943.1000, -78.585
 943.2000, -74.968
 943.3000, -79.065
 943.4000, -78.057
 943.5000, -76.114
 943.6000, -78.680
 943.7000, -78.387
 943.8000, -76.537
 943.9000, -75.356
 944.0000, -75.959
 944.1000, -80.686
 944.2000, -79.393
 944.3000, -76.084
 944.4000, -75.824
 944.5000, -77.068
 944.6000, -79.078
 944.7000, -76.581
 944.8000, -77.714
 944.9000, -76.885
 945.0000, -77.841
 945.1000, -79.001
 945.2000, -75.419
 945.3000, -78.499
 945.4000, -75.321
 945.5000, -76.603
 945.6000, -73.931
 945.7000, -76.903
 945.8000, -75.301
 945.9000, -75.450
 946.0000, -74.072
 946.1000, -75.255
 946.2000, -75.189
 946.3000, -74.934
 946.4000, -74.578
 946.5000, -76.475
 946.6000, -74.672
 946.7000, -76.500
 946.8000, -76.490
 946.9000, -76.461
 947.0000, -77.030
 947.1000, -74.992
 947.2000, -76.718
 947.3000, -77.067
 947.4000, -79.242
 947.5000, -77.484
 947.6000, -76.412
 947.7000, -78.068
 947.8000, -77.044
 947.9000, -77.146
 948.0000, -77.828
 948.1000, -76.819
 948.2000, -77.036
 948.3000, -79.898
 948.4000, -76.097
 948.5000, -77.042
 948.6000, -76.472
 948.7000, -76.919
 948.8000, -78.168
 948.9000, -76.228
 949.0000, -77.476
 949.1000, -78.199
 949.2000, -76.390
 949.3000, -77.977
 949.4000, -78.924
 949.5000, -75.312
 949.6000, -78.201
 949.7000, -77.612
 949.8000, -79.505
 949.9000, -78.026
 950.0000, -75.578
 950.1000, -78.238
 950.2000, -82.363
 950.3000, -76.162
 950.4000, -77.868
 950.5000, -77.793
 950.6000, -79.198
 950.7000, -76.919
 950.8000, -78.292
 950.9000, -78.921
 951.0000, -76.552
 951.1000, -78.079
 951.2000, -76.022
 951.3000, -78.919
 951.4000,-210.000
 951.5000, -77.288
 951.6000, -77.476
 951.7000, -74.545
 951.8000, -78.792
 951.9000, -77.126
 952.0000, -81.434
 952.1000, -77.619
 952.2000, -75.673
 952.3000, -77.087
 952.4000, -77.716
 952.5000, -77.618
 952.6000, -77.936
 952.7000, -76.958
 952.8000, -76.117
 952.9000, -76.992
 953.0000, -83.001
 953.1000, -75.255
 953.2000, -79.065
 953.3000, -79.559
 953.4000, -77.668
 953.5000, -78.428
 953.6000, -77.002
 953.7000,-210.000
 953.8000, -78.863
 953.9000, -76.855
 954.0000, -73.757
 954.1000, -79.166
 954.2000, -80.157
 954.3000, -81.724
 954.4000,-210.000
 954.5000, -78.342
 954.6000, -75.583
 954.7000, -83.896
 954.8000, -78.306
 954.9000, -78.327
 955.0000, -77.182
 955.1000, -78.821
 955.2000, -76.934
 955.3000, -78.949
 955.4000, -79.949
 955.5000, -80.370
 955.6000, -78.516
 955.7000, -76.655
 955.8000, -77.128
 955.9000, -76.970
 956.0000, -77.376
 956.1000, -77.322
 956.2000, -76.814
 956.3000, -79.818
 956.4000, -78.923
 956.5000, -76.935
 956.6000, -80.824
 956.7000, -78.605
 956.8000, -75.490
 956.9000, -79.406
 957.0000, -82.607
 957.1000, -77.256
 957.2000, -78.202
 957.3000, -78.146
 957.4000, -76.989
 957.5000, -79.624
 957.6000, -77.500
 957.7000, -78.983
 957.8000, -79.234
 957.9000, -75.382
 958.0000, -77.006
 958.1000, -81.289
 958.2000, -78.187
 958.3000, -78.231
 958.4000, -78.172
 958.5000, -76.562
 958.6000, -77.777
 958.7000, -78.290
 958.8000, -80.163
 958.9000, -77.599
 959.0000, -77.898
 959.1000, -77.741
 959.2000, -78.825
 959.3000, -77.925
 959.4000, -74.939
 959.5000, -81.180
 959.6000, -79.224
 959.7000, -78.112
 959.8000, -76.577
 959.9000, -78.008
 960.0000, -79.472
 960.1000, -79.855
 960.2000, -76.565
 960.3000, -78.953
 960.4000, -77.562
 960.5000, -77.437
 960.6000, -77.208
 960.7000, -82.949
 960.8000, -80.898
 960.9000, -79.328
 961.0000, -77.320
 961.1000, -76.773
 961.2000, -80.291
 961.3000, -78.769
 961.4000, -76.250
 961.5000, -80.930
 961.6000, -75.936
 961.7000, -77.422
 961.8000, -80.267
 961.9000, -76.523
 962.0000, -79.543
 962.1000, -79.042
 962.2000, -79.033
 962.3000, -78.182
 962.4000, -76.297
 962.5000, -77.903
 962.6000, -76.739
 962.7000, -78.682
 962.8000, -78.566
 962.9000, -78.148
 963.0000, -75.987
 963.1000, -77.707
 963.2000, -76.733
 963.3000, -80.769
 963.4000, -77.989
 963.5000, -77.402
 963.6000, -75.806
 963.7000, -83.761
 963.8000, -85.124
 963.9000, -75.931
 964.0000, -79.401
 964.1000, -77.220
 964.2000, -79.131
 964.3000, -78.718
 964.4000, -78.591
 964.5000, -79.498
 964.6000, -77.310
 964.7000, -79.496
 964.8000, -78.861
 964.9000, -76.831
 965.0000, -78.140
 965.1000, -83.854
 965.2000, -76.597
 965.3000, -77.782
 965.4000, -78.128
 965.5000, -76.901
 965.6000, -77.658
 965.7000, -77.665
 965.8000, -79.142
 965.9000, -78.841
 966.0000, -78.268
 966.1000, -77.704
 966.2000, -76.285
 966.3000, -77.546
 966.4000, -79.532
 966.5000, -77.064
 966.6000, -78.489
 966.7000, -78.617
 966.8000, -77.264
 966.9000, -80.443
 967.0000, -77.855
 967.1000, -76.363
 967.2000, -76.972
 967.3000, -78.414
 967.4000, -77.767
 967.5000, -79.302
 967.6000, -89.721
 967.7000, -78.323
 967.8000, -79.479
 967.9000, -77.160
 968.0000, -78.205
 968.1000, -77.858
 968.2000, -78.948
 968.3000, -78.939
 968.4000, -78.094
 968.5000, -78.135
 968.6000, -78.792
 968.7000, -75.601
 968.8000, -79.289
 968.9000, -79.872
 969.0000, -77.254
 969.1000, -76.828
 969.2000, -83.324
 969.3000, -74.944
 969.4000, -76.972
 969.5000, -78.131
 969.6000, -81.165
 969.7000, -78.854
 969.8000, -79.397
 969.9000, -79.707
 970.0000, -85.055
 970.1000, -77.055
 970.2000, -80.530
 970.3000, -77.139
 970.4000, -77.857
 970.5000, -77.599
 970.6000, -78.115
 970.7000, -78.961
 970.8000, -78.090
 970.9000, -78.245
 971.0000, -81.004
 971.1000, -80.120
 971.2000, -79.763
 971.3000, -77.533
 971.4000, -77.394
 971.5000, -79.367
 971.6000, -79.207
 971.7000, -80.521
 971.8000, -77.690
 971.9000, -87.739
 972.0000, -75.125
 972.1000, -77.191
 972.2000, -80.065
 972.3000, -78.448
 972.4000, -76.110
 972.5000, -82.504
 972.6000, -83.064
 972.7000, -75.513
 972.8000, -80.194
 972.9000, -80.138
 973.0000, -81.555
 973.1000, -76.161
 973.2000, -78.030
 973.3000, -78.796
 973.4000,-210.000
 973.5000, -78.382
 973.6000, -77.096
 973.7000, -78.096
 973.8000, -78.658
 973.9000, -83.438
 974.0000, -78.786
 974.1000, -77.568
 974.2000, -79.176
 974.3000, -78.173
 974.4000, -81.828
 974.5000, -77.890
 974.6000, -78.391
 974.7000, -78.065
 974.8000, -79.002
 974.9000, -77.921
 975.0000, -79.337
 975.1000, -77.190
 975.2000, -78.033
 975.3000, -80.674
 975.4000, -82.257
 975.5000, -78.062
 975.6000, -80.779
 975.7000, -77.881
 975.8000, -77.975
 975.9000, -79.194
 976.0000, -80.936
 976.1000, -81.222
 976.2000, -77.311
 976.3000, -78.108
 976.4000, -78.756
 976.5000, -77.476
 976.6000, -83.482
 976.7000, -77.921
 976.8000, -78.543
 976.9000, -77.265
 977.0000, -77.578
 977.1000, -83.964
 977.2000, -78.864
 977.3000, -78.988
 977.4000, -78.642
 977.5000, -77.804
 977.6000, -78.328
 977.7000, -78.481
 977.8000, -77.584
 977.9000, -79.128
 978.0000, -78.331
 978.1000, -79.249
 978.2000, -78.501
 978.3000, -79.342
 978.4000, -77.485
 978.5000, -80.907
 978.6000, -80.158
 978.7000, -78.106
 978.8000, -77.052
 978.9000, -77.984
 979.0000, -78.681
 979.1000, -77.518
 979.2000, -79.019
 979.3000, -78.447
 979.4000, -79.414
 979.5000, -77.654
 979.6000, -77.228
 979.7000, -83.622
 979.8000, -77.864
 979.9000, -77.415
 980.0000, -79.235
 980.1000, -77.378
 980.2000, -77.993
 980.3000, -77.004
 980.4000, -81.371
 980.5000, -79.188
 980.6000, -78.935
 980.7000, -75.807
 980.8000, -78.186
 980.9000, -78.085
 981.0000, -77.109
 981.1000, -79.980
 981.2000, -82.488
 981.3000, -76.279
 981.4000, -82.354
 981.5000, -77.202
 981.6000, -80.689
 981.7000, -77.921
 981.8000, -80.256
 981.9000, -76.804
 982.0000, -78.475
 982.1000, -76.329
 982.2000, -87.388
 982.3000, -83.053
 982.4000, -78.384
 982.5000, -78.191
 982.6000, -76.054
 982.7000, -82.921
 982.8000, -80.409
 982.9000, -79.862
 983.0000, -78.414
 983.1000, -77.430
 983.2000, -78.609
 983.3000, -78.756
 983.4000, -83.178
 983.5000, -78.552
 983.6000, -78.586
 983.7000, -78.539
 983.8000, -78.462
 983.9000, -78.958
 984.0000, -78.214
 984.1000, -79.190
 984.2000, -78.682
 984.3000, -82.482
 984.4000, -77.862
 984.5000, -78.128
 984.6000, -78.262
 984.7000, -79.304
 984.8000, -80.151
 984.9000, -77.486
 985.0000, -79.509
 985.1000, -77.335
 985.2000, -77.867
 985.3000, -82.940
 985.4000, -81.103
 985.5000, -78.154
 985.6000, -80.163
 985.7000, -81.338
 985.8000, -81.701
 985.9000, -78.473
 986.0000, -80.253
 986.1000, -79.088
 986.2000, -77.970
 986.3000, -77.182
 986.4000, -82.680
 986.5000, -84.832
 986.6000, -76.387
 986.7000, -81.164
 986.8000,-210.000
 986.9000, -77.772
 987.0000, -74.995
 987.1000, -82.463
 987.2000, -78.030
 987.3000, -78.288
 987.4000, -78.265
 987.5000, -80.034
 987.6000, -83.730
 987.7000, -80.337
 987.8000, -77.231
 987.9000, -79.147
 988.0000, -76.650
 988.1000, -81.136
 988.2000, -78.552
 988.3000, -77.655
 988.4000, -78.225
 988.5000, -79.702
 988.6000, -80.411
 988.7000, -78.891
 988.8000, -78.869
 988.9000, -83.974
 989.0000, -78.351
 989.1000, -79.039
 989.2000, -77.128
 989.3000, -78.490
 989.4000, -80.238
 989.5000, -79.073
 989.6000, -79.776
 989.7000, -77.920
 989.8000, -78.758
 989.9000, -77.181
 990.0000, -80.832
 990.1000, -79.255
 990.2000, -78.332
 990.3000, -80.489
 990.4000, -79.577
 990.5000, -80.733
 990.6000, -78.299
 990.7000, -80.662
 990.8000, -76.784
 990.9000, -79.448
 991.0000, -78.631
 991.1000, -80.493
 991.2000, -79.359
 991.3000, -79.175
 991.4000, -78.258
 991.5000, -79.052
 991.6000, -81.249
 991.7000, -78.238
 991.8000, -79.104
 991.9000, -80.467
 992.0000, -79.045
 992.1000, -77.153
 992.2000, -76.847
 992.3000, -79.280
 992.4000, -82.262
 992.5000, -82.126
 992.6000, -79.181
 992.7000, -80.286
 992.8000, -80.353
 992.9000, -77.455
 993.0000, -80.451
 993.1000, -78.331
 993.2000, -79.364
 993.3000, -80.038
 993.4000, -80.140
 993.5000, -77.496
 993.6000, -76.828
 993.7000, -82.439
 993.8000, -77.620
 993.9000, -78.696
 994.0000, -86.559
 994.1000, -78.991
 994.2000, -78.841
 994.3000, -79.957
 994.4000, -80.841
 994.5000, -77.900
 994.6000, -80.088
 994.7000, -81.045
 994.8000, -80.230
 994.9000, -79.256
 995.0000, -96.581
 995.1000, -79.518
 995.2000, -79.842
 995.3000, -80.318
 995.4000, -77.450
 995.5000, -78.371
 995.6000, -82.147
 995.7000, -79.115
 995.8000, -78.767
 995.9000, -79.672
 996.0000, -79.219
 996.1000, -78.949
 996.2000, -77.775
 996.3000, -78.365
 996.4000, -82.705
 996.5000, -78.601
 996.6000, -79.122
 996.7000, -78.601
 996.8000, -81.304
 996.9000, -81.307
 997.0000, -78.997
 997.1000, -75.213
 997.2000,-210.000
 997.3000, -82.167
 997.4000, -83.330
 997.5000, -89.412
 997.6000, -77.909
 997.7000, -80.236
 997.8000, -77.580
 997.9000, -83.775
 998.0000, -78.372
 998.1000, -79.051
 998.2000, -80.869
 998.3000, -79.058
 998.4000, -78.295
 998.5000, -83.796
 998.6000, -81.741
 998.7000, -77.540
 998.8000, -79.762
 998.9000, -79.595
 999.0000, -77.397
 999.1000,-210.000
 999.2000, -80.119
 999.3000, -76.337
 999.4000, -81.228
 999.5000, -77.722
 999.6000, -78.887
 999.7000, -84.916
 999.8000, -83.512
 999.9000, -76.345
1000.0000, -81.137
1000.1000, -79.942
1000.2000, -76.858
1000.3000, -78.013
1000.4000, -89.164
1000.5000, -77.065
1000.6000, -77.355
1000.7000, -93.536
1000.8000, -80.838
1000.9000, -76.176
1001.0000, -78.627
1001.1000, -83.319
1001.2000,-210.000
1001.3000, -77.179
1001.4000, -78.016
1001.5000,-210.000
1001.6000, -78.437
1001.7000, -81.119
1001.8000, -78.891
1001.9000, -77.963
1002.0000, -79.803
1002.1000, -87.816
1002.2000, -76.226
1002.3000, -81.120
1002.4000, -78.395
1002.5000, -79.275
1002.6000, -78.185
1002.7000, -78.839
1002.8000, -78.773
1002.9000, -79.193
1003.0000, -79.039
1003.1000, -79.289
1003.2000, -78.662
1003.3000, -80.885
1003.4000, -79.598
1003.5000, -78.110
1003.6000, -78.282
1003.7000, -79.567
1003.8000, -79.260
1003.9000, -81.605
1004.0000, -79.936
1004.1000, -79.149
1004.2000, -81.305
1004.3000, -79.129
1004.4000, -78.959
1004.5000, -80.559
1004.6000, -78.946
1004.7000, -78.820
1004.8000, -85.962
1004.9000, -82.233
1005.0000, -78.547
1005.1000, -79.493
1005.2000, -79.889
1005.3000, -81.748
1005.4000, -76.584
1005.5000, -84.454
1005.6000, -79.560
1005.7000, -78.487
1005.8000, -78.667
1005.9000, -78.013
1006.0000, -80.759
1006.1000, -79.198
1006.2000, -79.107
1006.3000, -79.807
1006.4000, -78.169
1006.5000, -80.423
1006.6000, -78.026
1006.7000, -77.930
1006.8000, -84.243
1006.9000, -83.453
1007.0000, -82.020
1007.1000, -79.017
1007.2000, -79.859
1007.3000, -78.195
1007.4000, -80.655
1007.5000, -77.101
1007.6000, -94.944
1007.7000, -78.936
1007.8000, -84.280
1007.9000, -80.185
1008.0000, -79.357
1008.1000, -82.520
1008.2000, -77.743
1008.3000, -79.641
1008.4000, -79.755
1008.5000, -80.307
1008.6000, -81.430
1008.7000, -80.933
1008.8000, -78.512
1008.9000, -79.121
1009.0000, -81.569
1009.1000, -79.164
1009.2000, -85.798
1009.3000, -77.982
1009.4000,-210.000
1009.5000, -77.003
1009.6000, -79.905
1009.7000, -82.065
1009.8000, -77.650
1009.9000, -80.726
1010.0000, -77.449
1010.1000, -79.490
1010.2000, -81.196
1010.3000, -81.910
1010.4000, -80.946
1010.5000, -82.976
1010.6000, -79.446
1010.7000, -78.830
1010.8000, -81.076
1010.9000, -80.265
1011.0000, -80.907
1011.1000, -82.429
1011.2000, -76.682
1011.3000, -77.896
1011.4000, -76.476
1011.5000, -80.007
1011.6000,-210.000
1011.7000, -77.970
1011.8000, -81.125
1011.9000, -81.376
1012.0000, -83.285
1012.1000, -79.502
1012.2000, -80.273
1012.3000, -77.419
1012.4000, -79.106
1012.5000, -80.406
1012.6000, -78.973
1012.7000, -79.815
1012.8000, -80.488
1012.9000,-210.000
1013.0000, -76.655
1013.1000, -79.632
1013.2000, -75.893
1013.3000, -82.554
1013.4000,-210.000
1013.5000, -76.847
1013.6000, -77.141
1013.7000,-210.000
1013.8000, -77.888
1013.9000, -76.085
1014.0000, -86.775
1014.1000, -83.348
1014.2000, -77.322
1014.3000, -78.180
1014.4000, -81.178
1014.5000, -78.364
1014.6000,-210.000
1014.7000, -77.817
1014.8000, -84.323
1014.9000, -87.265
1015.0000, -79.438
1015.1000, -78.685
1015.2000, -76.905
1015.3000, -88.060
1015.4000, -77.789
1015.5000, -81.772
1015.6000, -77.213
1015.7000, -77.673
1015.8000, -82.424
1015.9000, -79.572
1016.0000, -83.221
1016.1000, -76.073
1016.2000, -85.215
1016.3000, -78.291
1016.4000, -88.237
1016.5000, -76.597
1016.6000, -83.210
1016.7000, -82.789
1016.8000, -75.662
1016.9000, -84.836
1017.0000, -79.665
1017.1000,-210.000
1017.2000, -79.653
1017.3000, -80.033
1017.4000, -77.585
1017.5000, -78.999
1017.6000, -84.453
1017.7000, -79.001
1017.8000, -78.797
1017.9000, -85.944
1018.0000, -78.032
1018.1000, -83.772
1018.2000, -80.134
1018.3000, -76.675
1018.4000, -78.977
1018.5000, -78.406
1018.6000, -84.064
1018.7000, -79.058
1018.8000, -80.510
1018.9000, -76.161
1019.0000,-210.000
1019.1000,-210.000
1019.2000, -74.637
1019.3000, -78.568
1019.4000, -81.105
1019.5000, -80.292
1019.6000, -84.285
1019.7000, -81.030
1019.8000, -78.427
1019.9000, -80.025
1020.0000, -76.956
1020.1000, -80.868
1020.2000, -81.183
1020.3000, -91.180
1020.4000, -76.738
1020.5000, -84.191
1020.6000, -80.704
1020.7000, -77.628
1020.8000, -78.081
1020.9000, -81.101
1021.0000, -80.920
1021.1000, -81.200
1021.2000, -82.043
1021.3000, -79.086
1021.4000, -79.538
1021.5000, -82.323
1021.6000, -79.158
1021.7000, -78.883
1021.8000, -80.138
1021.9000, -78.319
1022.0000, -83.136
1022.1000, -78.991
1022.2000, -78.226
1022.3000, -81.294
1022.4000, -80.726
1022.5000, -85.149
1022.6000, -80.353
1022.7000, -79.741
1022.8000, -78.945
1022.9000, -78.173
1023.0000,-210.000
1023.1000, -76.498
1023.2000, -78.494
1023.3000,-210.000
1023.4000, -75.858
1023.5000, -79.349
1023.6000, -81.268
1023.7000, -80.001
1023.8000,-210.000
1023.9000, -78.696
1024.0000, -75.344
1024.1000, -84.617
1024.2000, -79.941
1024.3000, -94.123
1024.4000, -76.876
1024.5000, -80.093
1024.6000, -83.054
1024.7000, -79.064
1024.8000, -80.898
1024.9000, -77.611
1025.0000, -81.320
1025.1000, -79.075
1025.2000, -80.053
1025.3000, -79.838
1025.4000, -80.051
1025.5000, -80.097
1025.6000, -80.661
1025.7000, -79.442
1025.8000, -78.116
1025.9000, -79.284
1026.0000, -81.436
1026.1000, -79.816
1026.2000, -81.071
1026.3000, -79.448
1026.4000, -77.416
1026.5000, -79.724
1026.6000, -80.902
1026.7000, -81.444
1026.8000, -83.624
1026.9000, -77.744
1027.0000, -80.646
1027.1000, -81.853
1027.2000, -79.593
1027.3000, -78.290
1027.4000, -78.561
1027.5000, -80.009
1027.6000, -81.219
1027.7000, -80.875
1027.8000, -80.150
1027.9000, -81.763
1028.0000, -78.441
1028.1000, -79.906
1028.2000, -80.377
1028.3000, -79.781
1028.4000, -78.588
1028.5000, -81.394
1028.6000, -79.362
1028.7000, -78.738
1028.8000, -86.514
1028.9000, -79.731
1029.0000, -79.617
1029.1000, -78.025
1029.2000, -85.112
1029.3000, -77.667
1029.4000, -79.468
1029.5000, -83.559
1029.6000, -80.593
1029.7000, -79.823
1029.8000, -80.219
1029.9000, -77.764
1030.0000, -80.262
1030.1000, -78.319
1030.2000, -80.612
1030.3000, -85.476
1030.4000, -79.731
1030.5000, -78.737
1030.6000, -80.054
1030.7000, -77.954
1030.8000, -84.023
1030.9000, -80.657
1031.0000, -78.640
1031.1000, -79.558
1031.2000, -79.803
1031.3000, -78.433
1031.4000, -80.612
1031.5000, -80.166
1031.6000, -78.582
1031.7000, -78.795
1031.8000, -83.919
1031.9000, -80.413
1032.0000, -79.460
1032.1000, -79.482
1032.2000, -79.803
1032.3000, -80.293
1032.4000, -77.855
1032.5000, -85.904
1032.6000, -79.402
1032.7000, -82.994
1032.8000, -78.888
1032.9000, -78.836
1033.0000, -81.399
1033.1000, -80.659
1033.2000, -82.276
1033.3000, -79.887
1033.4000, -79.567
1033.5000, -77.823
1033.6000, -79.744
1033.7000, -78.077
1033.8000, -85.484
1033.9000, -79.156
1034.0000, -78.777
1034.1000, -79.482
1034.2000, -82.931
1034.3000, -78.629
1034.4000, -80.262
1034.5000, -78.077
1034.6000, -77.516
1034.7000, -85.493
1034.8000, -77.716
1034.9000, -79.564
1035.0000, -82.774
1035.1000, -79.023
1035.2000, -78.520
1035.3000, -80.950
1035.4000, -81.901
1035.5000, -80.583
1035.6000, -80.756
1035.7000, -78.760
1035.8000, -79.273
1035.9000, -80.942
1036.0000, -83.267
1036.1000, -78.478
1036.2000, -78.903
1036.3000, -80.809
1036.4000, -80.025
1036.5000, -78.843
1036.6000, -80.734
1036.7000, -80.103
1036.8000, -77.605
1036.9000, -80.787
1037.0000, -80.723
1037.1000, -81.879
1037.2000, -81.435
1037.3000, -79.781
1037.4000, -79.668
1037.5000, -81.995
1037.6000, -84.098
1037.7000, -79.742
1037.8000, -78.325
1037.9000, -82.529
1038.0000, -81.366
1038.1000, -79.604
1038.2000, -84.745
1038.3000, -78.813
1038.4000, -80.241
1038.5000, -79.542
1038.6000, -80.007
1038.7000, -80.710
1038.8000, -79.121
1038.9000, -82.583
1039.0000, -78.161
1039.1000, -78.673
1039.2000, -79.927
1039.3000, -79.218
1039.4000, -79.711
1039.5000, -82.424
1039.6000, -79.738
1039.7000, -81.429
1039.8000, -79.485
1039.9000, -79.300
1040.0000, -83.142
1040.1000, -78.053
1040.2000, -79.468
1040.3000, -84.759
1040.4000, -81.273
1040.5000, -79.196
1040.6000, -81.338
1040.7000, -81.523
1040.8000, -80.450
1040.9000, -79.428
1041.0000, -79.956
1041.1000, -80.523
1041.2000, -78.517
1041.3000, -81.442
1041.4000, -80.389
1041.5000, -75.565
1041.6000, -82.404
1041.7000, -81.192
1041.8000, -81.360
1041.9000, -81.572
1042.0000, -80.262
1042.1000, -78.076
1042.2000, -80.754
1042.3000, -78.112
1042.4000, -88.409
1042.5000, -81.185
1042.6000, -79.647
1042.7000, -81.115
1042.8000, -78.142
1042.9000, -80.661
1043.0000, -80.309
1043.1000, -79.935
1043.2000, -79.075
1043.3000, -81.695
1043.4000, -79.534
1043.5000, -80.185
1043.6000, -79.624
1043.7000, -80.131
1043.8000, -79.355
1043.9000, -81.369
1044.0000, -79.300
1044.1000, -79.285
1044.2000, -81.167
1044.3000, -79.680
1044.4000, -79.747
1044.5000, -80.044
1044.6000, -82.975
1044.7000, -80.065
1044.8000, -80.075
1044.9000, -78.590
1045.0000, -80.110
1045.1000, -79.895
1045.2000, -82.266
1045.3000, -79.306
1045.4000, -80.365
1045.5000, -81.026
1045.6000, -79.094
1045.7000, -78.865
1045.8000, -81.279
1045.9000, -78.878
1046.0000, -80.110
1046.1000, -86.137
1046.2000, -79.197
1046.3000, -80.322
1046.4000, -79.969
1046.5000, -80.667
1046.6000, -77.331
1046.7000, -78.241
1046.8000, -80.213
1046.9000, -86.033
1047.0000, -84.758
1047.1000, -78.027
1047.2000, -80.274
1047.3000, -80.226
1047.4000, -78.499
1047.5000, -79.865
1047.6000, -79.608
1047.7000, -79.417
1047.8000, -81.901
1047.9000, -79.138
1048.0000, -80.865
1048.1000, -79.746
1048.2000, -80.583
1048.3000, -79.077
1048.4000, -81.524
1048.5000, -79.679
1048.6000, -79.715
1048.7000, -78.758
1048.8000, -79.572
1048.9000, -82.797
1049.0000, -82.109
1049.1000, -79.000
1049.2000, -79.707
1049.3000, -79.490
1049.4000, -80.726
1049.5000, -81.950
1049.6000, -78.920
1049.7000, -80.033
1049.8000, -80.831
1049.9000, -80.547
1050.0000, -79.509
1050.1000, -79.607
1050.2000, -81.224
1050.3000, -79.987
1050.4000, -80.131
1050.5000, -80.073
1050.6000, -79.945
1050.7000, -78.166
1050.8000, -87.493
1050.9000, -79.105
1051.0000, -78.842
1051.1000, -80.335
1051.2000, -81.086
1051.3000, -85.653
1051.4000, -78.968
1051.5000, -79.434
1051.6000, -80.973
1051.7000, -79.794
1051.8000, -76.559
1051.9000, -92.948
1052.0000, -77.833
1052.1000, -78.130
1052.2000, -76.468
1052.3000, -77.375
1052.4000, -77.424
1052.5000, -77.684
1052.6000, -77.018
1052.7000, -77.798
1052.8000, -77.455
1052.9000, -76.066
1053.0000, -78.501
1053.1000, -79.465
1053.2000, -77.912
1053.3000,-210.000
1053.4000, -78.856
1053.5000, -76.186
1053.6000, -81.064
1053.7000, -81.888
1053.8000, -81.405
1053.9000, -80.125
1054.0000, -80.398
1054.1000, -78.264
1054.2000, -79.531
1054.3000, -81.247
1054.4000, -80.352
1054.5000, -80.535
1054.6000, -81.438
1054.7000, -79.178
1054.8000, -79.260
1054.9000, -79.691
1055.0000, -79.886
1055.1000, -78.940
1055.2000, -80.116
1055.3000, -80.614
1055.4000, -82.249
1055.5000, -80.296
1055.6000, -78.804
1055.7000, -79.787
1055.8000, -79.740
1055.9000, -80.557
1056.0000, -80.287
1056.1000, -76.957
1056.2000, -79.985
1056.3000, -83.185
1056.4000, -79.991
1056.5000, -78.853
1056.6000, -78.328
1056.7000, -78.325
1056.8000, -79.100
1056.9000,-210.000
1057.0000, -80.864
1057.1000, -77.872
1057.2000,-210.000
1057.3000, -77.458
1057.4000, -78.407
1057.5000, -88.319
1057.6000, -78.919
1057.7000, -76.701
1057.8000, -80.477
1057.9000, -80.252
1058.0000, -82.524
1058.1000, -78.871
1058.2000, -79.371
1058.3000, -78.345
1058.4000, -82.206
1058.5000, -83.927
1058.6000, -77.278
1058.7000, -81.458
1058.8000, -78.136
1058.9000, -78.920
1059.0000, -79.749
1059.1000, -79.157
1059.2000, -80.508
1059.3000, -82.111
1059.4000, -79.859
1059.5000, -83.064
1059.6000, -78.999
1059.7000, -77.357
1059.8000, -79.272
1059.9000, -86.110
1060.0000, -78.810
1060.1000, -79.088
1060.2000, -79.436
1060.3000, -78.553
1060.4000, -80.669
1060.5000, -78.909
1060.6000, -76.947
1060.7000, -82.558
1060.8000, -76.858
1060.9000, -78.982
1061.0000, -79.290
1061.1000, -77.054
1061.2000, -78.451
1061.3000, -76.838
1061.4000, -76.464
1061.5000, -77.376
1061.6000, -76.535
1061.7000, -74.583
1061.8000, -74.586
1061.9000, -74.497
1062.0000, -74.454
1062.1000, -75.045
1062.2000, -74.488
1062.3000, -74.192
1062.4000, -75.086
1062.5000, -75.621
1062.6000, -76.023
1062.7000, -75.891
1062.8000, -75.525
1062.9000, -75.043
1063.0000, -74.389
1063.1000, -74.203
1063.2000, -74.326
1063.3000, -73.503
1063.4000, -73.881
1063.5000, -72.534
1063.6000, -71.800
1063.7000, -70.942
1063.8000, -69.997
1063.9000, -68.769
1064.0000, -67.431
1064.1000, -65.666
1064.2000, -61.320
1064.3000, -37.475
1064.4000, -22.164
1064.5000, -19.497
1064.6000, -19.439
1064.7000, -19.437
1064.8000, -19.436
1064.9000, -19.436
1065.0000, -19.453
1065.1000, -21.502
1065.2000, -34.228
1065.3000, -53.044
1065.4000, -65.022
1065.5000, -66.954
1065.6000, -68.103
1065.7000, -69.377
1065.8000, -70.151
1065.9000, -71.275
1066.0000, -71.950
1066.1000, -72.643
1066.2000, -73.295
1066.3000, -73.916
1066.4000, -74.150
1066.5000, -75.208
1066.6000, -74.638
1066.7000, -75.063
1066.8000, -75.877
1066.9000, -76.186
1067.0000, -76.230
1067.1000, -76.808
1067.2000, -76.762
1067.3000, -77.350
1067.4000, -76.770
1067.5000, -77.077
1067.6000, -76.844
1067.7000, -78.133
1067.8000, -78.767
1067.9000, -78.217
1068.0000, -77.508
1068.1000, -77.592
1068.2000, -77.003
1068.3000, -78.121
1068.4000, -78.057
1068.5000, -77.182
1068.6000, -77.529
1068.7000, -77.855
1068.8000, -78.302
1068.9000, -76.989
1069.0000, -79.167
1069.1000, -77.813
1069.2000, -77.020
1069.3000, -80.453
1069.4000, -78.896
1069.5000, -79.176
1069.6000, -78.409
1069.7000, -77.920
1069.8000, -79.238
1069.9000, -79.830
1070.0000, -78.966
1070.1000, -77.528
1070.2000, -79.070
1070.3000, -82.884
1070.4000, -78.538
1070.5000, -79.692
1070.6000, -78.584
1070.7000, -78.199
1070.8000, -80.861
1070.9000, -80.922
1071.0000, -79.320
1071.1000, -78.526
1071.2000, -78.491
1071.3000, -77.924
1071.4000,-210.000
1071.5000, -81.393
1071.6000, -77.910
1071.7000, -80.255
1071.8000, -80.418
1071.9000, -79.464
1072.0000, -80.712
1072.1000, -81.034
1072.2000, -79.876
1072.3000, -78.653
1072.4000, -78.233
1072.5000, -82.049
1072.6000, -79.745
1072.7000, -79.803
1072.8000, -79.455
1072.9000, -78.614
1073.0000, -78.344
1073.1000, -83.033
1073.2000, -77.741
1073.3000, -79.635
1073.4000, -81.163
1073.5000, -79.291
1073.6000, -80.509
1073.7000, -78.380
1073.8000, -77.211
1073.9000, -78.948
1074.0000, -77.452
1074.1000, -76.631
1074.2000, -75.765
1074.3000, -75.685
1074.4000, -78.112
1074.5000, -76.028
1074.6000, -76.899
1074.7000, -78.590
1074.8000, -79.079
1074.9000, -78.046
1075.0000, -78.273
1075.1000, -78.820
1075.2000, -77.052
1075.3000, -78.884
1075.4000, -80.552
1075.5000, -80.193
1075.6000, -86.013
1075.7000, -78.521
1075.8000, -76.901
1075.9000, -79.893
1076.0000, -83.663
1076.1000, -78.244
1076.2000, -79.393
1076.3000, -81.516
1076.4000, -82.901
1076.5000, -77.872
1076.6000, -80.847
1076.7000, -85.547
1076.8000, -78.070
1076.9000, -80.632
1077.0000, -80.285
1077.1000, -78.503
1077.2000, -84.696
1077.3000, -79.661
1077.4000, -78.336
1077.5000, -82.310
1077.6000, -79.346
1077.7000, -79.359
1077.8000, -79.336
1077.9000, -79.094
1078.0000, -78.716
1078.1000, -77.364
1078.2000, -78.533
1078.3000, -78.202
1078.4000, -78.534
1078.5000, -78.520
1078.6000, -78.911
1078.7000, -77.406
1078.8000, -78.449
1078.9000, -79.599
1079.0000, -78.797
1079.1000, -79.761
1079.2000, -80.110
1079.3000, -79.454
1079.4000, -80.578
1079.5000, -78.803
1079.6000, -81.431
1079.7000, -80.521
1079.8000, -78.564
1079.9000, -81.449
1080.0000, -79.764
1080.1000, -79.952
1080.2000, -80.293
1080.3000, -81.049
1080.4000, -79.156
1080.5000, -79.769
1080.6000, -81.510
1080.7000, -82.034
1080.8000, -80.716
1080.9000, -80.061
1081.0000, -83.459
1081.1000, -80.516
1081.2000, -79.996
1081.3000, -81.143
1081.4000, -80.581
1081.5000, -80.601
1081.6000, -80.636
1081.7000, -80.031
1081.8000, -80.937
1081.9000, -78.633
1082.0000, -81.714
1082.1000, -82.149
1082.2000, -79.189
1082.3000, -78.896
1082.4000, -81.431
1082.5000, -81.190
1082.6000, -81.337
1082.7000, -80.115
1082.8000, -80.829
1082.9000, -80.859
1083.0000, -80.333
1083.1000, -82.217
1083.2000, -83.683
1083.3000, -80.967
1083.4000, -80.087
1083.5000, -80.534
1083.6000, -81.123
1083.7000, -80.911
1083.8000, -79.967
1083.9000, -81.785
1084.0000, -80.418
1084.1000, -78.610
1084.2000, -82.045
1084.3000, -79.806
1084.4000, -80.226
1084.5000, -79.959
1084.6000, -82.096
1084.7000, -80.845
1084.8000, -80.324
1084.9000, -79.198
1085.0000, -80.591
1085.1000, -79.822
1085.2000, -82.809
1085.3000, -80.596
1085.4000, -81.662
1085.5000, -80.148
1085.6000, -82.444
1085.7000, -80.438
1085.8000, -80.104
1085.9000, -80.849
1086.0000, -81.052
1086.1000, -80.089
1086.2000, -79.991
1086.3000, -80.712
1086.4000, -80.395
1086.5000, -82.815
1086.6000, -79.473
1086.7000, -80.279
1086.8000, -82.010
1086.9000, -80.696
1087.0000, -79.186
1087.1000, -80.617
1087.2000, -80.030
1087.3000, -82.697
1087.4000, -79.358
1087.5000, -79.543
1087.6000, -80.066
1087.7000, -79.617
1087.8000, -79.138
1087.9000, -80.339
1088.0000, -80.553
1088.1000, -81.796
1088.2000, -78.558
1088.3000, -77.748
1088.4000, -91.259
1088.5000, -84.691
1088.6000, -78.534
1088.7000, -80.515
1088.8000, -79.806
1088.9000, -80.850
1089.0000, -79.232
1089.1000, -79.886
1089.2000, -81.937
1089.3000, -80.877
1089.4000, -84.881
1089.5000, -80.905
1089.6000, -79.521
1089.7000, -80.752
1089.8000, -79.763
1089.9000, -79.861
1090.0000, -79.657
1090.1000, -79.781
1090.2000, -80.086
1090.3000, -78.728
1090.4000, -80.025
1090.5000, -81.931
1090.6000, -79.245
1090.7000, -81.435
1090.8000, -81.095
1090.9000, -82.006
1091.0000, -78.340
1091.1000, -81.036
1091.2000, -80.839
1091.3000, -81.162
1091.4000, -83.939
1091.5000, -78.393
1091.6000, -78.328
1091.7000, -81.410
1091.8000, -80.976
1091.9000, -81.118
1092.0000, -79.116
1092.1000, -79.872
1092.2000, -80.313
1092.3000, -79.392
1092.4000, -81.217
1092.5000, -80.578
1092.6000, -79.600
1092.7000, -81.179
1092.8000, -80.979
1092.9000, -80.392
1093.0000, -80.209
1093.1000, -80.359
1093.2000, -78.912
1093.3000, -79.195
1093.4000, -81.447
1093.5000, -82.178
1093.6000, -80.598
1093.7000, -79.054
1093.8000, -79.998
1093.9000, -79.810
1094.0000, -82.598
1094.1000, -79.666
1094.2000, -81.387
1094.3000, -79.024
1094.4000, -80.072
1094.5000, -79.617
1094.6000, -80.212
1094.7000, -80.318
1094.8000, -80.034
1094.9000, -80.532
1095.0000, -78.996
1095.1000, -80.235
1095.2000, -85.000
1095.3000, -79.991
1095.4000, -79.366
1095.5000, -81.278
1095.6000, -79.884
1095.7000, -79.689
1095.8000, -79.194
1095.9000, -77.235
1096.0000, -81.671
1096.1000, -78.544
1096.2000,-210.000
1096.3000, -79.760
1096.4000, -78.887
1096.5000, -82.842
1096.6000, -79.805
1096.7000, -81.172
1096.8000, -79.696
1096.9000, -82.076
1097.0000, -79.369
1097.1000, -80.589
1097.2000, -79.371
1097.3000, -80.370
1097.4000, -80.305
1097.5000, -80.072
1097.6000, -81.480
1097.7000, -81.462
1097.8000, -80.449
1097.9000, -79.035
1098.0000, -79.860
1098.1000, -81.096
1098.2000, -82.382
1098.3000, -79.470
1098.4000, -81.342
1098.5000, -80.105
1098.6000, -79.729
1098.7000, -79.594
1098.8000, -79.996
1098.9000, -79.361
1099.0000, -81.306
1099.1000, -80.478
1099.2000, -78.322
1099.3000, -80.168
1099.4000, -81.833
1099.5000, -79.377
1099.6000, -81.265
1099.7000, -79.527
1099.8000, -80.339
1099.9000, -79.207
1100.0000, -80.562
1100.1000, -82.988
1100.2000, -81.059
1100.3000, -80.027
1100.4000, -78.601
1100.5000, -79.132
1100.6000, -81.004
1100.7000, -82.024
1100.8000, -80.993
1100.9000, -79.534
1101.0000, -80.750
1101.1000, -80.228
1101.2000, -80.549
1101.3000, -79.608
1101.4000, -80.589
1101.5000, -80.088
1101.6000, -80.553
1101.7000, -80.826
1101.8000, -79.689
1101.9000, -80.007
1102.0000, -79.945
1102.1000, -81.223
1102.2000, -81.282
1102.3000, -79.774
1102.4000, -79.560
1102.5000, -79.727
1102.6000, -81.048
1102.7000, -80.255
1102.8000, -79.339
1102.9000, -78.708
1103.0000, -80.529
1103.1000, -80.335
1103.2000, -78.543
1103.3000, -77.613
1103.4000, -84.850
1103.5000, -80.131
1103.6000, -80.338
1103.7000, -79.768
1103.8000, -79.118
1103.9000, -85.849
1104.0000, -79.586
1104.1000, -79.733
1104.2000, -79.766
1104.3000, -79.821
1104.4000, -79.362
1104.5000, -81.916
1104.6000, -82.111
1104.7000, -79.799
1104.8000, -77.796
1104.9000, -79.359
1105.0000, -77.904
1105.1000, -78.959
1105.2000, -81.938
1105.3000, -78.596
1105.4000, -80.240
1105.5000, -81.481
1105.6000, -79.334
1105.7000, -78.395
1105.8000, -82.024
1105.9000, -79.271
1106.0000, -80.486
1106.1000, -78.171
1106.2000, -80.920
1106.3000, -79.560
1106.4000, -78.642
1106.5000, -78.525
1106.6000, -79.764
1106.7000, -78.898
1106.8000, -80.143
1106.9000, -78.774
1107.0000, -80.916
1107.1000, -78.430
1107.2000, -80.489
1107.3000, -81.093
1107.4000, -80.815
1107.5000, -78.794
1107.6000, -80.285
1107.7000, -79.181
1107.8000, -79.943
1107.9000, -82.145
1108.0000, -81.790
1108.1000, -76.748
1108.2000,-210.000
1108.3000, -78.511
1108.4000, -79.709
1108.5000, -79.431
1108.6000, -79.585
1108.7000, -79.867
1108.8000, -80.656
1108.9000, -79.742
1109.0000, -79.692
1109.1000, -79.720
1109.2000, -78.257
1109.3000, -83.371
1109.4000, -80.817
1109.5000, -82.022
1109.6000, -76.191
1109.7000, -81.507
1109.8000, -82.545
1109.9000, -82.268
1110.0000, -78.759
1110.1000, -80.687
1110.2000, -81.175
1110.3000, -78.716
1110.4000, -77.314
1110.5000,-210.000
1110.6000, -80.683
1110.7000, -78.760
1110.8000, -79.417
1110.9000, -79.499
1111.0000, -78.768
1111.1000, -79.302
1111.2000, -80.144
1111.3000, -79.596
1111.4000, -78.077
1111.5000, -78.528
1111.6000, -78.352
1111.7000, -78.975
1111.8000, -79.287
1111.9000, -77.690
1112.0000, -79.657
1112.1000, -78.713
1112.2000, -80.526
1112.3000, -77.523
1112.4000, -78.862
1112.5000, -79.890
1112.6000, -76.965
1112.7000, -78.438
1112.8000, -78.797
1112.9000, -78.337
1113.0000, -78.930
1113.1000, -79.811
1113.2000, -78.786
1113.3000, -78.279
1113.4000, -79.121
1113.5000, -77.766
1113.6000, -79.032
1113.7000, -79.136
1113.8000, -79.741
1113.9000, -80.851
1114.0000, -79.312
1114.1000, -79.128
1114.2000, -77.437
1114.3000, -80.074
1114.4000, -80.399
1114.5000, -78.642
1114.6000, -80.181
1114.7000, -78.828
1114.8000, -81.077
1114.9000, -78.918
1115.0000, -79.523
1115.1000, -79.426
1115.2000, -78.562
1115.3000, -79.154
1115.4000, -78.551
1115.5000, -79.413
1115.6000, -79.794
1115.7000, -77.266
1115.8000, -78.493
1115.9000, -80.694
1116.0000, -77.367
1116.1000, -78.669
1116.2000, -77.869
1116.3000, -78.320
1116.4000, -78.762
1116.5000, -78.742
1116.6000, -78.443
1116.7000, -77.278
1116.8000, -81.572
1116.9000, -78.652
1117.0000, -77.566
1117.1000, -77.558
1117.2000, -81.432
1117.3000, -81.351
1117.4000, -80.469
1117.5000, -77.849
1117.6000, -79.508
1117.7000, -79.528
1117.8000, -80.347
1117.9000, -78.550
1118.0000, -78.671
1118.1000, -81.966
1118.2000, -77.571
1118.3000, -84.367
1118.4000, -79.484
1118.5000, -79.135
1118.6000, -79.678
1118.7000, -79.203
1118.8000, -79.921
1118.9000, -81.322
1119.0000, -79.111
1119.1000, -78.375
1119.2000, -81.179
1119.3000, -80.978
1119.4000, -78.834
1119.5000, -79.480
1119.6000, -78.462
1119.7000, -78.120
1119.8000, -82.756
1119.9000, -78.829
1120.0000, -80.244
1120.1000, -79.779
1120.2000, -79.040
1120.3000, -79.480
1120.4000, -79.790
1120.5000, -79.317
1120.6000, -78.925
1120.7000, -79.544
1120.8000, -78.908
1120.9000, -79.686
1121.0000, -78.555
1121.1000, -81.534
1121.2000, -80.583
1121.3000, -79.055
1121.4000, -78.226
1121.5000, -85.319
1121.6000, -78.842
1121.7000, -77.036
1121.8000, -81.209
1121.9000, -82.218
1122.0000, -81.416
1122.1000, -79.058
1122.2000, -79.179
1122.3000, -79.084
1122.4000, -79.367
1122.5000, -80.403
1122.6000, -78.567
1122.7000, -77.005
1122.8000, -80.078
1122.9000, -78.445
1123.0000, -77.819
1123.1000, -80.635
1123.2000, -78.039
1123.3000, -78.496
1123.4000, -79.828
1123.5000, -80.185
1123.6000, -78.197
1123.7000, -78.199
1123.8000, -79.056
1123.9000, -78.439
1124.0000, -80.077
1124.1000, -82.631
1124.2000, -78.496
1124.3000, -80.282
1124.4000, -81.256
1124.5000, -79.451
1124.6000, -80.477
1124.7000, -77.711
1124.8000, -82.536
1124.9000, -77.965
1125.0000, -81.177
1125.1000, -79.625
1125.2000, -79.536
1125.3000, -81.660
1125.4000, -79.285
1125.5000, -78.783
1125.6000, -85.286
1125.7000, -79.255
1125.8000, -79.175
1125.9000, -84.309
1126.0000, -81.742
1126.1000, -78.494
1126.2000, -79.734
1126.3000, -79.903
1126.4000, -85.293
1126.5000, -80.360
1126.6000, -79.118
1126.7000, -82.157
1126.8000, -83.088
1126.9000, -81.432
1127.0000, -82.883
1127.1000, -82.184
1127.2000, -79.882
1127.3000, -79.294
1127.4000, -80.680
1127.5000, -82.120
1127.6000, -82.182
1127.7000, -82.483
1127.8000, -78.823
1127.9000, -80.842
1128.0000, -79.498
1128.1000, -81.116
1128.2000, -80.257
1128.3000, -80.119
1128.4000, -81.187
1128.5000, -79.749
1128.6000, -80.470
1128.7000, -80.916
1128.8000, -82.513
1128.9000, -80.040
1129.0000, -79.999
1129.1000, -82.440
1129.2000, -78.604
1129.3000, -82.094
1129.4000, -80.470
1129.5000, -79.612
1129.6000, -81.692
1129.7000, -85.140
1129.8000, -79.622
1129.9000, -80.284
1130.0000, -82.008
1130.1000, -86.979
1130.2000, -79.675
1130.3000, -80.732
1130.4000, -79.676
1130.5000, -81.589
1130.6000, -79.908
1130.7000, -79.707
1130.8000, -81.400
1130.9000, -81.884
1131.0000, -81.228
1131.1000, -80.436
1131.2000, -81.221
1131.3000, -80.824
1131.4000, -85.393
1131.5000, -79.535
1131.6000, -79.708
1131.7000, -81.969
1131.8000, -82.007
1131.9000, -81.043
1132.0000, -79.479
1132.1000, -82.398
1132.2000, -81.169
1132.3000, -80.080
1132.4000, -79.625
1132.5000, -82.230
1132.6000, -82.511
1132.7000, -81.734
1132.8000, -79.598
1132.9000, -81.410
1133.0000, -82.745
1133.1000, -82.895
1133.2000, -81.041
1133.3000, -80.752
1133.4000, -80.136
1133.5000, -80.266
1133.6000, -82.846
1133.7000, -80.940
1133.8000, -80.646
1133.9000, -81.933
1134.0000, -81.695
1134.1000, -80.589
1134.2000, -82.784
1134.3000, -80.368
1134.4000, -81.051
1134.5000, -78.739
1134.6000, -84.602
1134.7000, -80.318
1134.8000, -82.069
1134.9000, -80.462
1135.0000, -81.531
1135.1000, -80.617
1135.2000, -80.698
1135.3000, -82.615
1135.4000, -81.606
1135.5000, -81.602
1135.6000, -80.319
1135.7000, -80.893
1135.8000, -80.917
1135.9000, -82.287
1136.0000, -81.628
1136.1000, -79.962
1136.2000, -82.798
1136.3000, -79.060
1136.4000, -80.316
1136.5000, -83.223
1136.6000, -80.666
1136.7000, -81.721
1136.8000, -79.814
1136.9000, -82.808
1137.0000, -80.739
1137.1000, -79.137
1137.2000, -80.962
1137.3000, -79.986
1137.4000, -79.406
1137.5000, -81.305
1137.6000, -78.827
1137.7000, -83.483
1137.8000,-210.000
1137.9000, -77.055
1138.0000, -82.649
1138.1000, -80.658
1138.2000, -81.226
1138.3000, -83.565
1138.4000, -80.642
1138.5000, -78.844
1138.6000, -80.759
1138.7000, -80.526
1138.8000, -82.651
1138.9000, -82.672
1139.0000, -81.051
1139.1000, -82.582
1139.2000, -80.483
1139.3000, -80.399
1139.4000, -79.259
1139.5000, -82.494
1139.6000, -80.022
1139.7000, -82.225
1139.8000, -83.598
1139.9000, -82.997
1140.0000, -79.265
1140.1000, -79.666
1140.2000, -80.417
1140.3000, -78.377
1140.4000, -83.159
1140.5000, -83.209
1140.6000, -80.231
1140.7000, -83.747
1140.8000, -80.965
1140.9000, -81.801
1141.0000, -80.874
1141.1000, -80.701
1141.2000, -81.709
1141.3000, -81.532
1141.4000, -81.494
1141.5000, -81.631
1141.6000, -83.583
1141.7000, -79.276
1141.8000, -79.107
1141.9000, -82.905
1142.0000, -81.718
1142.1000, -79.285
1142.2000, -81.618
1142.3000, -81.023
1142.4000,-210.000
1142.5000, -80.769
1142.6000, -79.203
1142.7000, -81.545
1142.8000, -82.288
1142.9000, -80.678
1143.0000, -83.374
1143.1000, -81.041
1143.2000, -80.652
1143.3000, -81.359
1143.4000, -81.549
1143.5000, -79.686
1143.6000, -81.478
1143.7000, -83.155
1143.8000, -81.277
1143.9000, -80.052
1144.0000, -79.807
1144.1000, -82.969
1144.2000, -83.937
1144.3000, -81.291
1144.4000, -81.240
1144.5000, -80.070
1144.6000, -80.170
1144.7000, -81.304
1144.8000, -82.875
1144.9000, -80.887
1145.0000, -81.561
1145.1000, -95.818
1145.2000, -76.851
1145.3000, -79.142
1145.4000, -85.573
1145.5000, -80.032
1145.6000, -81.680
1145.7000, -80.130
1145.8000, -85.890
1145.9000, -83.308
1146.0000, -85.531
1146.1000, -80.539
1146.2000, -83.655
1146.3000, -81.223
1146.4000, -82.264
1146.5000, -81.129
1146.6000, -79.086
1146.7000, -82.145
1146.8000, -92.433
1146.9000, -77.265
1147.0000, -88.410
1147.1000, -80.559
1147.2000, -79.172
1147.3000, -86.560
1147.4000, -81.401
1147.5000, -80.732
1147.6000, -80.441
1147.7000, -80.293
1147.8000, -85.770
1147.9000, -83.003
1148.0000, -80.566
1148.1000, -81.667
1148.2000, -80.622
1148.3000, -80.224
1148.4000, -83.297
1148.5000, -82.397
1148.6000, -81.565
1148.7000, -79.810
1148.8000, -82.055
1148.9000, -84.886
1149.0000, -79.235
1149.1000, -81.351
1149.2000, -79.947
1149.3000, -84.077
1149.4000, -82.642
1149.5000, -81.289
1149.6000, -82.569
1149.7000, -81.447
1149.8000, -82.074
1149.9000, -81.146
1150.0000, -80.755
1150.1000, -83.794
1150.2000, -81.100
1150.3000, -81.181
1150.4000, -81.372
1150.5000, -80.637
1150.6000, -81.385
1150.7000, -82.306
1150.8000, -80.743
1150.9000, -82.606
1151.0000, -82.219
1151.1000, -78.860
1151.2000, -84.686
1151.3000, -81.783
1151.4000, -81.914
1151.5000, -80.454
1151.6000, -83.308
1151.7000, -80.172
1151.8000, -82.212
1151.9000, -81.995
1152.0000, -81.816
1152.1000, -82.791
1152.2000, -80.869
1152.3000, -79.509
1152.4000, -81.407
1152.5000, -82.000
1152.6000, -80.819
1152.7000, -82.885
1152.8000, -81.128
1152.9000, -82.446
1153.0000, -81.071
1153.1000, -80.093
1153.2000, -82.248
1153.3000, -79.750
1153.4000, -78.453
1153.5000, -81.232
1153.6000, -94.455
1153.7000, -80.203
1153.8000, -80.165
1153.9000, -85.574
1154.0000, -85.859
1154.1000, -77.473
1154.2000, -80.706
1154.3000, -86.772
1154.4000, -80.856
1154.5000, -80.986
1154.6000, -82.072
1154.7000, -83.618
1154.8000, -80.782
1154.9000, -81.789
1155.0000, -82.534
1155.1000, -81.566
1155.2000, -79.731
1155.3000, -81.355
1155.4000, -83.460
1155.5000, -81.718
1155.6000, -80.455
1155.7000, -81.023
1155.8000, -82.587
1155.9000, -79.257
1156.0000, -80.432
1156.1000, -81.135
1156.2000, -83.874
1156.3000, -81.827
1156.4000, -80.719
1156.5000, -83.344
1156.6000, -81.801
1156.7000, -80.764
1156.8000, -81.313
1156.9000, -80.382
1157.0000, -81.001
1157.1000, -81.636
1157.2000, -82.517
1157.3000, -81.728
1157.4000, -82.074
1157.5000, -79.806
1157.6000, -81.203
1157.7000, -80.571
1157.8000, -81.843
1157.9000, -81.080
1158.0000, -82.884
1158.1000, -82.370
1158.2000, -82.442
1158.3000, -80.805
1158.4000, -79.971
1158.5000, -79.730
1158.6000, -85.834
1158.7000, -82.846
1158.8000, -81.090
1158.9000, -80.461
1159.0000, -84.011
1159.1000, -79.600
1159.2000, -80.859
1159.3000, -81.226
1159.4000,-210.000
1159.5000, -79.365
1159.6000, -79.972
1159.7000, -80.955
1159.8000, -87.131
1159.9000, -79.929
1160.0000, -80.704
1160.1000, -79.688
1160.2000, -85.166
1160.3000, -80.588
1160.4000, -81.272
1160.5000, -80.973
1160.6000, -82.373
1160.7000, -80.601
1160.8000, -80.986
1160.9000, -80.674
1161.0000, -81.357
1161.1000, -82.647
1161.2000, -82.862
1161.3000, -80.658
1161.4000, -80.227
1161.5000, -80.151
1161.6000, -82.444
1161.7000, -80.375
1161.8000, -81.641
1161.9000, -82.751
1162.0000, -83.910
1162.1000, -81.743
1162.2000, -80.955
1162.3000, -83.123
1162.4000, -80.077
1162.5000, -80.284
1162.6000, -80.813
1162.7000, -80.114
1162.8000, -78.316
1162.9000, -81.917
1163.0000, -81.142
1163.1000, -82.294
1163.2000, -79.792
1163.3000, -79.219
1163.4000, -81.936
1163.5000,-210.000
1163.6000, -79.464
1163.7000, -80.362
1163.8000, -79.816
1163.9000, -82.425
1164.0000,-210.000
1164.1000, -83.462
1164.2000, -79.539
1164.3000, -79.633
1164.4000, -80.663
1164.5000, -81.848
1164.6000, -80.773
1164.7000, -82.918
1164.8000, -81.244
1164.9000, -80.820
1165.0000, -81.718
1165.1000, -78.497
1165.2000, -82.067
1165.3000,-210.000
1165.4000, -77.628
1165.5000, -86.397
1165.6000, -80.639
1165.7000, -79.112
1165.8000, -83.424
1165.9000, -80.505
1166.0000, -82.670
1166.1000, -80.532
1166.2000, -78.806
1166.3000, -81.410
1166.4000, -80.928
1166.5000, -79.118
1166.6000, -81.477
1166.7000, -84.569
1166.8000, -82.665
1166.9000, -77.828
1167.0000, -87.377
1167.1000, -78.440
1167.2000, -81.076
1167.3000, -81.109
1167.4000, -84.024
1167.5000, -79.928
1167.6000, -78.467
1167.7000, -83.422
1167.8000, -80.887
1167.9000,-210.000
1168.0000, -78.897
1168.1000, -78.633
1168.2000, -82.362
1168.3000, -79.797
1168.4000, -81.655
1168.5000, -83.251
1168.6000, -79.614
1168.7000, -81.019
1168.8000, -80.462
1168.9000, -81.508
1169.0000, -82.080
1169.1000, -80.117
1169.2000, -80.062
1169.3000, -80.486
1169.4000, -80.819
1169.5000, -82.399
1169.6000, -80.092
1169.7000, -81.454
1169.8000, -82.988
1169.9000, -79.164
1170.0000, -80.095
1170.1000, -82.309
1170.2000, -82.071
1170.3000, -79.761
1170.4000, -82.055
1170.5000, -82.195
1170.6000, -80.694
1170.7000, -82.450
1170.8000, -79.973
1170.9000, -81.281
1171.0000, -80.535
1171.1000, -82.930
1171.2000, -80.879
1171.3000, -81.214
1171.4000, -81.132
1171.5000, -81.657
1171.6000, -83.031
1171.7000, -81.251
1171.8000, -79.694
1171.9000, -80.764
1172.0000, -81.191
1172.1000, -79.654
1172.2000, -81.021
1172.3000, -79.828
1172.4000, -78.164
1172.5000, -83.203
1172.6000, -79.232
1172.7000, -80.800
1172.8000, -90.238
1172.9000, -82.277
1173.0000, -83.575
1173.1000, -79.591
1173.2000, -88.876
1173.3000, -82.913
1173.4000, -77.434
1173.5000,-210.000
1173.6000, -83.659
1173.7000, -79.397
1173.8000, -79.672
1173.9000, -81.099
1174.0000, -79.949
1174.1000, -79.354
1174.2000, -85.853
1174.3000, -80.092
1174.4000, -81.770
1174.5000, -82.474
1174.6000, -84.020
1174.7000, -79.323
1174.8000, -80.693
1174.9000, -83.784
1175.0000, -81.930
1175.1000, -80.932
1175.2000, -79.847
1175.3000, -82.789
1175.4000, -80.880
1175.5000, -81.611
1175.6000, -81.322
1175.7000, -80.883
1175.8000, -80.068
1175.9000, -79.406
1176.0000, -89.625
1176.1000, -82.286
1176.2000, -81.366
1176.3000, -80.205
1176.4000, -87.582
1176.5000, -79.483
1176.6000, -81.475
1176.7000, -80.874
1176.8000, -84.737
1176.9000, -78.765
1177.0000, -82.627
1177.1000, -82.259
1177.2000, -79.764
1177.3000, -83.355
1177.4000, -79.871
1177.5000, -83.540
1177.6000, -80.365
1177.7000, -82.069
1177.8000, -80.438
1177.9000, -78.997
1178.0000, -81.739
1178.1000, -82.188
1178.2000, -81.255
1178.3000, -79.418
1178.4000, -81.521
1178.5000, -85.821
1178.6000, -80.240
1178.7000, -80.940
1178.8000, -81.885
1178.9000, -81.029
1179.0000, -81.856
1179.1000, -82.148
1179.2000, -80.452
1179.3000,-210.000
1179.4000, -79.563
1179.5000, -82.230
1179.6000, -83.760
1179.7000, -80.464
1179.8000, -81.775
1179.9000, -80.649
1180.0000, -83.934
1180.1000, -80.196
1180.2000, -81.390
1180.3000, -81.807
1180.4000, -81.140
1180.5000, -80.783
1180.6000, -81.130
1180.7000, -81.598
1180.8000, -81.039
1180.9000, -79.511
1181.0000, -82.447
1181.1000, -84.173
1181.2000, -89.536
1181.3000, -77.912
1181.4000, -88.368
1181.5000, -82.100
1181.6000, -82.443
1181.7000, -81.175
1181.8000, -78.964
1181.9000, -78.711
1182.0000, -87.310
1182.1000, -80.523
1182.2000, -82.086
1182.3000,-210.000
1182.4000, -78.372
1182.5000, -97.560
1182.6000, -80.032
1182.7000, -79.754
1182.8000, -80.760
1182.9000, -86.770
1183.0000, -81.406
1183.1000, -83.407
1183.2000, -81.027
1183.3000, -81.278
1183.4000, -80.259
1183.5000, -81.361
1183.6000, -81.157
1183.7000, -81.406
1183.8000, -80.518
1183.9000, -83.571
1184.0000,-210.000
1184.1000, -78.675
1184.2000, -78.801
1184.3000, -83.189
1184.4000, -81.440
1184.5000, -80.131
1184.6000, -81.812
1184.7000, -80.742
1184.8000, -80.981
1184.9000, -82.921
1185.0000, -80.610
1185.1000, -82.884
1185.2000, -81.125
1185.3000, -85.036
1185.4000, -82.613
1185.5000, -81.463
1185.6000, -80.041
1185.7000, -82.922
1185.8000, -80.772
1185.9000, -83.278
1186.0000, -80.169
1186.1000, -81.926
1186.2000, -80.955
1186.3000, -82.183
1186.4000, -81.181
1186.5000, -80.164
1186.6000, -80.676
1186.7000, -81.331
1186.8000, -81.569
1186.9000, -82.204
1187.0000, -81.903
1187.1000, -82.052
1187.2000, -80.639
1187.3000, -81.436
1187.4000, -82.947
1187.5000, -83.335
1187.6000, -81.338
1187.7000, -83.573
1187.8000, -81.699
1187.9000, -80.212
1188.0000, -81.666
1188.1000, -83.035
1188.2000, -81.148
1188.3000, -84.190
1188.4000, -80.092
1188.5000, -82.875
1188.6000, -80.183
1188.7000, -86.345
1188.8000, -80.432
1188.9000, -80.242
1189.0000, -88.829
1189.1000, -82.002
1189.2000, -80.220
1189.3000, -81.709
1189.4000, -80.778
1189.5000, -81.399
1189.6000, -83.371
1189.7000, -81.323
1189.8000, -80.249
1189.9000, -82.935
1190.0000, -82.465
1190.1000, -82.470
1190.2000, -81.661
1190.3000, -81.149
1190.4000, -83.387
1190.5000, -81.342
1190.6000, -80.106
1190.7000, -81.136
1190.8000, -82.321
1190.9000, -81.323
1191.0000, -80.384
1191.1000, -80.779
1191.2000, -81.400
1191.3000, -81.313
1191.4000, -81.090
1191.5000, -82.414
1191.6000, -81.534
1191.7000, -81.152
1191.8000, -84.163
1191.9000, -81.929
1192.0000, -79.019
1192.1000, -80.865
1192.2000, -90.512
1192.3000, -77.873
1192.4000, -83.377
1192.5000, -84.673
1192.6000, -78.590
1192.7000, -82.011
1192.8000, -81.460
1192.9000, -81.353
1193.0000, -80.151
1193.1000, -80.241
1193.2000, -83.432
1193.3000, -79.460
1193.4000, -80.733
1193.5000, -81.944
1193.6000, -81.020
1193.7000, -83.516
1193.8000, -85.176
1193.9000, -78.969
1194.0000, -82.522
1194.1000, -81.693
1194.2000, -83.103
1194.3000, -82.835
1194.4000, -81.929
1194.5000, -79.586
1194.6000, -82.955
1194.7000, -81.128
1194.8000, -81.009
1194.9000, -80.883
1195.0000, -80.350
1195.1000, -79.333
1195.2000, -82.595
1195.3000, -84.048
1195.4000, -82.368
1195.5000, -81.677
1195.6000, -81.126
1195.7000, -80.942
1195.8000, -79.017
1195.9000, -79.993
1196.0000, -80.872
1196.1000, -92.973
1196.2000, -81.284
1196.3000, -81.416
1196.4000, -82.492
1196.5000, -79.920
1196.6000,-210.000
1196.7000, -82.594
1196.8000, -77.221
1196.9000, -79.433
1197.0000, -83.564
1197.1000, -86.868
1197.2000, -85.458
1197.3000, -82.001
1197.4000, -80.886
1197.5000, -79.957
1197.6000, -81.885
1197.7000, -81.263
1197.8000, -79.775
1197.9000, -80.856
1198.0000, -81.083
1198.1000, -81.908
1198.2000, -82.062
1198.3000, -82.136
1198.4000, -80.329
1198.5000, -82.029
1198.6000, -81.861
1198.7000, -80.179
1198.8000, -82.698
1198.9000, -81.281
1199.0000, -81.676
1199.1000, -84.590
1199.2000, -81.386
1199.3000, -81.574
1199.4000, -81.844
1199.5000, -80.693
1199.6000, -79.550
1199.7000, -82.835
1199.8000, -81.056
1199.9000, -82.639
1200.0000, -79.768
1200.1000, -84.289
1200.2000, -83.818
1200.3000, -81.922
1200.4000, -89.871
1200.5000, -77.804
1200.6000, -82.373
1200.7000, -80.773
1200.8000, -79.997
1200.9000, -80.201
1201.0000, -91.462
1201.1000, -79.666
1201.2000, -82.737
1201.3000, -81.533
1201.4000, -80.076
1201.5000, -81.452
1201.6000, -83.803
1201.7000, -81.697
1201.8000, -81.436
1201.9000, -79.811
1202.0000, -82.684
1202.1000, -81.453
1202.2000, -80.795
1202.3000, -81.925
1202.4000, -79.621
1202.5000, -81.263
1202.6000, -88.010
1202.7000, -80.087
1202.8000, -82.019
1202.9000, -81.181
1203.0000, -80.477
1203.1000, -80.475
1203.2000, -80.768
1203.3000, -81.262
1203.4000, -85.700
1203.5000, -81.541
1203.6000, -81.495
1203.7000, -80.773
1203.8000, -79.986
1203.9000, -81.597
1204.0000, -81.423
1204.1000, -81.499
1204.2000, -82.495
1204.3000, -80.997
1204.4000, -80.538
1204.5000, -82.204
1204.6000, -81.520
1204.7000, -81.354
1204.8000, -81.038
1204.9000, -80.708
1205.0000, -80.161
1205.1000, -81.087
1205.2000, -80.191
1205.3000, -80.137
1205.4000, -80.855
1205.5000, -83.348
1205.6000, -80.883
1205.7000, -85.747
1205.8000, -84.161
1205.9000, -79.749
1206.0000, -80.206
1206.1000, -81.577
1206.2000, -82.159
1206.3000, -83.415
1206.4000, -81.597
1206.5000, -80.426
1206.6000, -80.044
1206.7000, -80.777
1206.8000, -85.132
1206.9000, -81.210
1207.0000, -79.243
1207.1000, -80.011
1207.2000, -83.433
1207.3000, -82.815
1207.4000, -81.580
1207.5000, -81.719
1207.6000, -82.567
1207.7000, -81.078
1207.8000, -78.201
1207.9000,-210.000
1208.0000, -80.761
1208.1000, -80.837
1208.2000, -81.882
1208.3000, -80.719
1208.4000, -80.931
1208.5000, -78.921
1208.6000, -86.068
1208.7000, -82.413
1208.8000, -81.837
1208.9000, -82.851
1209.0000, -81.903
1209.1000, -84.366
1209.2000, -81.500
1209.3000, -84.864
1209.4000, -80.974
1209.5000, -78.753
1209.6000, -80.887
1209.7000, -82.839
1209.8000, -81.794
1209.9000, -80.221
1210.0000, -93.628
1210.1000, -81.738
1210.2000, -82.182
1210.3000, -80.662
1210.4000, -81.243
1210.5000, -81.509
1210.6000, -81.615
1210.7000, -81.388
1210.8000, -81.412
1210.9000, -82.201
1211.0000, -80.850
1211.1000, -81.037
1211.2000, -81.364
1211.3000, -81.556
1211.4000, -81.090
1211.5000, -79.654
1211.6000, -82.782
1211.7000, -82.542
1211.8000, -79.789
1211.9000, -84.456
1212.0000, -81.693
1212.1000, -82.368
1212.2000, -80.392
1212.3000, -81.077
1212.4000, -81.523
1212.5000, -82.453
1212.6000, -80.085
1212.7000, -80.365
1212.8000, -84.026
1212.9000, -80.143
1213.0000, -86.176
1213.1000, -79.570
1213.2000, -82.734
1213.3000, -80.670
1213.4000, -81.916
1213.5000, -83.541
1213.6000, -82.043
1213.7000, -80.267
1213.8000, -82.311
1213.9000, -81.341
1214.0000, -81.441
1214.1000, -82.879
1214.2000, -80.685
1214.3000, -79.721
1214.4000, -82.769
1214.5000, -82.543
1214.6000, -81.054
1214.7000, -82.127
1214.8000, -82.049
1214.9000, -83.810
1215.0000, -82.648
1215.1000, -80.507
1215.2000, -80.399
1215.3000, -81.169
1215.4000, -85.038
1215.5000, -80.192
1215.6000, -82.932
1215.7000, -80.790
1215.8000, -81.716
1215.9000, -80.404
1216.0000, -81.340
1216.1000, -82.165
1216.2000, -82.914
1216.3000, -80.779
1216.4000, -80.898
1216.5000, -82.625
1216.6000, -81.260
1216.7000, -82.638
1216.8000, -80.202
1216.9000, -81.080
1217.0000, -83.998
1217.1000, -80.529
1217.2000, -83.245
1217.3000, -81.267
1217.4000, -81.286
1217.5000, -80.934
1217.6000, -81.419
1217.7000, -81.977
1217.8000, -84.146
1217.9000, -81.233
1218.0000, -81.191
1218.1000, -79.840
1218.2000, -82.607
1218.3000, -81.331
1218.4000, -81.761
1218.5000, -80.913
1218.6000, -80.780
1218.7000, -82.133
1218.8000, -81.842
1218.9000, -81.300
1219.0000, -80.768
1219.1000, -82.209
1219.2000, -82.488
1219.3000, -80.929
1219.4000, -81.397
1219.5000, -84.135
1219.6000, -80.995
1219.7000, -81.559
1219.8000, -82.321
1219.9000, -83.435
1220.0000, -81.251
1220.1000, -80.529
1220.2000, -82.456
1220.3000, -80.987
1220.4000, -80.209
1220.5000, -83.177
1220.6000, -84.425
1220.7000, -81.387
1220.8000, -81.876
1220.9000, -81.160
1221.0000, -80.774
1221.1000, -82.750
1221.2000, -80.316
1221.3000, -80.038
1221.4000, -81.421
1221.5000, -80.937
1221.6000, -85.879
1221.7000, -80.335
1221.8000, -78.963
1221.9000, -83.653
1222.0000, -81.360
1222.1000, -82.622
1222.2000, -81.620
1222.3000, -81.744
1222.4000, -81.194
1222.5000, -81.183
1222.6000, -80.940
1222.7000, -80.793
1222.8000, -81.342
1222.9000, -80.835
1223.0000, -82.132
1223.1000, -80.276
1223.2000, -80.600
1223.3000, -81.960
1223.4000, -79.014
1223.5000, -80.749
1223.6000, -85.600
1223.7000, -78.797
1223.8000, -82.056
1223.9000, -83.796
1224.0000, -82.012
1224.1000, -80.111
1224.2000, -80.423
1224.3000, -81.941
1224.4000, -80.697
1224.5000, -80.271
1224.6000, -80.731
1224.7000, -80.513
1224.8000, -82.664
1224.9000, -81.910
1225.0000, -85.261
1225.1000, -80.841
1225.2000, -78.370
1225.3000, -81.847
1225.4000, -80.485
1225.5000, -81.267
1225.6000, -80.796
1225.7000, -81.825
1225.8000, -81.134
1225.9000, -79.646
1226.0000, -78.003
1226.1000, -81.722
1226.2000,-210.000
1226.3000, -82.423
1226.4000, -79.647
1226.5000, -84.298
1226.6000, -78.987
1226.7000, -81.328
1226.8000, -82.646
1226.9000, -78.265
1227.0000, -86.378
1227.1000, -82.817
1227.2000, -81.567
1227.3000, -83.521
1227.4000, -78.631
1227.5000, -83.027
1227.6000, -82.953
1227.7000, -81.055
1227.8000, -80.862
1227.9000, -80.362
1228.0000, -81.178
1228.1000, -82.453
1228.2000, -79.441
1228.3000, -81.559
1228.4000, -82.238
1228.5000, -81.596
1228.6000, -82.173
1228.7000, -81.734
1228.8000, -79.593
1228.9000, -80.189
1229.0000, -81.606
1229.1000, -80.831
1229.2000, -81.947
1229.3000, -80.437
1229.4000, -80.142
1229.5000, -81.224
1229.6000, -81.474
1229.7000, -82.173
1229.8000, -80.318
1229.9000, -81.912
1230.0000, -82.315
1230.1000, -80.309
1230.2000, -80.968
1230.3000, -83.132
1230.4000, -82.087
1230.5000, -79.811
1230.6000, -82.252
1230.7000, -80.932
1230.8000, -80.236
1230.9000, -83.157
1231.0000, -81.077
1231.1000, -80.847
1231.2000, -79.633
1231.3000, -80.509
1231.4000, -82.299
1231.5000, -81.079
1231.6000, -80.856
1231.7000, -80.332
1231.8000, -80.742
1231.9000, -81.942
1232.0000, -82.633
1232.1000, -79.824
1232.2000, -80.262
1232.3000, -81.731
1232.4000, -82.632
1232.5000, -83.153
1232.6000, -79.621
1232.7000, -82.026
1232.8000, -81.520
1232.9000, -80.917
1233.0000, -79.746
1233.1000, -80.429
1233.2000, -82.347
1233.3000, -80.795
1233.4000, -81.876
1233.5000, -81.388
1233.6000, -80.185
1233.7000, -81.890
1233.8000, -80.138
1233.9000, -84.792
1234.0000, -80.948
1234.1000, -81.341
1234.2000, -82.397
1234.3000, -80.251
1234.4000, -80.551
1234.5000, -80.451
1234.6000, -81.186
1234.7000, -84.486
1234.8000, -81.656
1234.9000, -79.637
1235.0000, -82.012
1235.1000, -81.864
1235.2000, -80.768
1235.3000, -80.448
1235.4000, -81.918
1235.5000, -82.498
1235.6000, -81.888
1235.7000, -81.475
1235.8000, -82.404
1235.9000, -82.183
1236.0000, -79.158
1236.1000, -82.203
1236.2000, -81.548
1236.3000, -80.712
1236.4000, -82.020
1236.5000, -79.196
1236.6000, -82.743
1236.7000, -80.924
1236.8000, -81.448
1236.9000, -81.577
1237.0000, -81.726
1237.1000, -79.536
1237.2000, -82.546
1237.3000, -80.827
1237.4000, -82.698
1237.5000, -82.917
1237.6000, -81.817
1237.7000, -80.631
1237.8000, -85.187
1237.9000, -80.007
1238.0000, -80.083
1238.1000, -81.681
1238.2000, -81.866
1238.3000, -81.153
1238.4000, -82.584
1238.5000, -79.424
1238.6000, -82.001
1238.7000, -78.458
1238.8000, -91.593
1238.9000, -81.123
1239.0000, -88.342
1239.1000, -81.112
1239.2000, -81.566
1239.3000, -80.184
1239.4000, -84.082
1239.5000, -81.111
1239.6000, -81.178
1239.7000, -81.416
1239.8000, -80.114
1239.9000, -84.160
1240.0000, -80.585
1240.1000, -81.961
1240.2000, -81.108
1240.3000, -82.305
1240.4000, -81.887
1240.5000, -80.420
1240.6000, -82.152
1240.7000, -81.974
1240.8000, -80.716
1240.9000, -81.125
1241.0000, -83.381
1241.1000, -83.165
1241.2000, -80.491
1241.3000, -84.354
1241.4000, -82.702
1241.5000, -80.401
1241.6000, -80.660
1241.7000, -83.283
1241.8000, -80.535
1241.9000, -82.427
1242.0000, -81.816
1242.1000, -80.669
1242.2000, -81.752
1242.3000, -81.132
1242.4000, -79.483
1242.5000, -81.437
1242.6000, -80.212
1242.7000, -81.076
1242.8000, -81.192
1242.9000, -81.515
1243.0000, -80.987
1243.1000, -82.994
1243.2000, -82.995
1243.3000, -83.058
1243.4000, -81.145
1243.5000, -83.664
1243.6000, -80.807
1243.7000, -81.136
1243.8000, -81.156
1243.9000, -80.219
1244.0000, -81.499
1244.1000, -81.241
1244.2000, -82.720
1244.3000, -80.595
1244.4000, -82.919
1244.5000, -80.514
1244.6000, -81.772
1244.7000, -82.408
1244.8000, -78.920
1244.9000, -83.413
1245.0000, -81.077
1245.1000, -80.704
1245.2000, -80.958
1245.3000, -81.821
1245.4000, -83.979
1245.5000, -81.465
1245.6000, -83.617
1245.7000, -82.099
1245.8000, -79.608
1245.9000, -79.882
1246.0000, -81.179
1246.1000, -82.446
1246.2000, -78.783
1246.3000, -89.958
1246.4000, -82.250
1246.5000, -80.507
1246.6000, -79.494
1246.7000, -83.345
1246.8000, -83.079
1246.9000, -79.558
1247.0000, -82.740
1247.1000, -82.347
1247.2000, -80.236
1247.3000, -81.674
1247.4000, -81.235
1247.5000, -81.384
1247.6000, -80.702
1247.7000, -82.243
1247.8000, -80.354
1247.9000, -81.106
1248.0000, -80.370
1248.1000, -83.788
1248.2000, -81.033
1248.3000, -81.553
1248.4000, -79.666
1248.5000, -81.818
1248.6000, -81.365
1248.7000, -82.216
1248.8000, -83.529
1248.9000, -81.015
1249.0000, -80.522
1249.1000, -81.629
1249.2000, -80.040
1249.3000, -83.414
1249.4000, -79.672
1249.5000, -85.763
1249.6000, -80.414
1249.7000, -82.254
1249.8000, -81.029
1249.9000, -80.211
1250.0000, -81.382
1250.1000, -80.004
1250.2000, -81.406
1250.3000, -81.333
1250.4000, -80.859
1250.5000, -82.257
1250.6000, -79.863
1250.7000, -80.827
1250.8000, -80.436
1250.9000, -81.769
1251.0000, -80.576
1251.1000, -79.805
1251.2000, -80.726
1251.3000, -81.783
1251.4000, -84.432
1251.5000, -81.397
1251.6000, -81.408
1251.7000, -80.446
1251.8000, -80.994
1251.9000, -80.756
1252.0000, -80.941
1252.1000, -83.179
1252.2000, -81.284
1252.3000, -83.721
1252.4000, -80.727
1252.5000, -80.274
1252.6000, -81.850
1252.7000, -79.492
1252.8000, -82.721
1252.9000, -82.470
1253.0000, -82.282
1253.1000, -80.804
1253.2000, -83.287
1253.3000, -79.593
1253.4000, -79.349
1253.5000, -82.065
1253.6000, -81.743
1253.7000, -81.119
1253.8000, -81.165
1253.9000, -86.641
1254.0000, -84.622
1254.1000, -81.950
1254.2000, -81.571
1254.3000, -80.475
1254.4000, -80.715
1254.5000, -85.831
1254.6000, -80.291
1254.7000, -82.516
1254.8000, -79.381
1254.9000, -84.331
1255.0000, -82.029
1255.1000, -78.945
1255.2000, -77.915
1255.3000,-210.000
1255.4000, -80.145
1255.5000, -79.553
1255.6000, -80.679
1255.7000, -83.488
1255.8000, -85.516
1255.9000, -81.893
1256.0000, -81.036
1256.1000, -80.963
1256.2000, -82.367
1256.3000, -82.116
1256.4000, -80.443
1256.5000, -81.592
1256.6000,-210.000
1256.7000, -78.439
1256.8000, -81.091
1256.9000, -81.302
1257.0000, -80.511
1257.1000, -82.422
1257.2000, -80.042
1257.3000, -81.104
1257.4000, -79.346
1257.5000, -81.356
1257.6000, -80.825
1257.7000, -81.245
1257.8000, -80.277
1257.9000, -80.569
1258.0000, -82.444
1258.1000, -80.835
1258.2000, -80.748
1258.3000, -80.249
1258.4000, -81.229
1258.5000, -82.085
1258.6000, -79.615
1258.7000, -80.624
1258.8000, -79.392
1258.9000, -84.167
1259.0000, -80.057
1259.1000, -86.897
1259.2000, -80.705
1259.3000, -84.141
1259.4000, -80.754
1259.5000, -80.978
1259.6000, -79.751
1259.7000, -83.631
1259.8000, -79.434
1259.9000, -78.540
1260.0000,-210.000
1260.1000, -81.958
1260.2000, -79.684
1260.3000, -80.997
1260.4000, -80.368
1260.5000, -81.482
1260.6000, -81.652
1260.7000, -80.765
1260.8000, -81.183
1260.9000, -80.865
1261.0000, -80.908
1261.1000, -80.198
1261.2000, -81.871
1261.3000, -81.199
1261.4000, -83.082
1261.5000, -80.732
1261.6000, -79.518
1261.7000, -81.295
1261.8000, -80.489
1261.9000, -79.398
1262.0000, -91.939
1262.1000, -80.540
1262.2000, -80.837
1262.3000, -77.895
1262.4000, -89.091
1262.5000, -85.640
1262.6000, -78.890
1262.7000, -81.288
1262.8000, -83.739
1262.9000, -78.916
1263.0000, -87.570
1263.1000, -82.834
1263.2000, -80.837
1263.3000, -82.732
1263.4000, -81.680
1263.5000, -80.656
1263.6000,-210.000
1263.7000, -80.204
1263.8000, -79.403
1263.9000, -81.828
1264.0000, -87.244
1264.1000, -82.064
1264.2000, -80.204
1264.3000, -79.907
1264.4000, -81.340
1264.5000, -81.418
1264.6000, -81.506
1264.7000, -81.719
1264.8000, -80.948
1264.9000, -81.309
1265.0000, -83.237
1265.1000, -82.326
1265.2000, -80.360
1265.3000, -80.686
1265.4000, -80.795
1265.5000, -81.811
1265.6000, -81.828
1265.7000, -80.950
1265.8000, -82.748
1265.9000, -79.589
1266.0000, -80.957
1266.1000, -81.687
1266.2000, -80.146
1266.3000, -81.099
1266.4000, -82.707
1266.5000, -81.458
1266.6000, -81.877
1266.7000, -80.287
1266.8000, -81.406
1266.9000, -81.029
1267.0000, -82.570
1267.1000, -81.849
1267.2000, -81.114
1267.3000, -80.887
1267.4000, -85.486
1267.5000, -80.229
1267.6000, -81.060
1267.7000, -80.957
1267.8000, -83.877
1267.9000, -82.020
1268.0000, -82.324
1268.1000, -81.305
1268.2000, -80.907
1268.3000, -81.537
1268.4000, -81.477
1268.5000, -79.900
1268.6000, -80.305
1268.7000, -79.860
1268.8000, -80.672
1268.9000, -81.385
1269.0000, -93.537
1269.1000, -83.024
1269.2000, -80.559
1269.3000, -80.890
1269.4000, -80.589
1269.5000, -80.968
1269.6000, -97.704
1269.7000, -80.416
1269.8000, -79.490
1269.9000, -81.452
1270.0000, -79.917
1270.1000, -81.785
1270.2000, -80.453
1270.3000, -80.023
1270.4000, -82.305
1270.5000, -82.289
1270.6000, -82.674
1270.7000, -78.696
1270.8000, -82.351
1270.9000, -81.543
1271.0000, -83.306
1271.1000, -80.940
1271.2000, -79.750
1271.3000,-210.000
1271.4000, -77.770
1271.5000, -84.763
1271.6000, -79.478
1271.7000, -80.115
1271.8000, -81.694
1271.9000, -80.692
1272.0000, -80.390
1272.1000, -82.404
1272.2000, -80.939
1272.3000, -82.134
1272.4000, -81.838
1272.5000, -80.312
1272.6000, -84.488
1272.7000, -81.097
1272.8000, -81.640
1272.9000, -81.468
1273.0000, -81.470
1273.1000, -79.127
1273.2000, -83.893
1273.3000, -80.448
1273.4000, -80.144
1273.5000, -80.904
1273.6000, -85.266
1273.7000, -82.797
1273.8000, -80.742
1273.9000, -80.583
1274.0000, -82.572
1274.1000, -80.893
1274.2000, -80.753
1274.3000, -82.568
1274.4000, -80.104
1274.5000, -80.811
1274.6000, -82.343
1274.7000, -81.922
1274.8000, -81.951
1274.9000, -81.072
1275.0000, -82.933
1275.1000, -80.960
1275.2000, -83.362
1275.3000, -82.563
1275.4000, -81.555
1275.5000, -81.969
1275.6000, -81.170
1275.7000, -81.260
1275.8000, -80.638
1275.9000, -80.880
1276.0000, -81.307
1276.1000, -81.201
1276.2000, -80.451
1276.3000, -80.860
1276.4000, -81.214
1276.5000, -83.830
1276.6000, -80.238
1276.7000, -81.572
1276.8000, -81.070
1276.9000, -81.614
1277.0000, -81.060
1277.1000, -81.091
1277.2000, -81.523
1277.3000, -80.632
1277.4000, -87.448
1277.5000, -81.032
1277.6000, -81.326
1277.7000, -81.407
1277.8000, -82.711
1277.9000, -81.500
1278.0000, -80.251
1278.1000, -83.164
1278.2000, -81.163
1278.3000, -81.236
1278.4000, -81.742
1278.5000, -83.470
1278.6000, -80.052
1278.7000, -84.879
1278.8000, -82.589
1278.9000, -80.149
1279.0000, -81.740
1279.1000, -82.337
1279.2000, -80.439
1279.3000, -84.489
1279.4000, -80.279
1279.5000, -83.996
1279.6000, -81.843
1279.7000, -79.919
1279.8000, -82.103
1279.9000, -82.254
1280.0000, -81.304
1280.1000, -79.365
1280.2000, -81.191
1280.3000, -81.834
1280.4000, -79.881
1280.5000, -84.030
1280.6000, -80.285
1280.7000, -82.760
1280.8000, -82.146
1280.9000, -81.496
1281.0000, -80.712
1281.1000, -83.108
1281.2000, -81.635
1281.3000, -81.958
1281.4000, -80.662
1281.5000, -80.852
1281.6000, -81.419
1281.7000, -82.171
1281.8000, -79.677
1281.9000, -83.369
1282.0000, -82.218
1282.1000, -79.957
1282.2000, -80.850
1282.3000, -81.767
1282.4000, -81.393
1282.5000, -80.860
1282.6000, -80.718
1282.7000, -81.094
1282.8000, -81.963
1282.9000, -80.712
1283.0000, -80.973
1283.1000, -80.494
1283.2000, -80.016
1283.3000, -81.683
1283.4000, -81.381
1283.5000, -81.446
1283.6000, -83.616
1283.7000, -82.400
1283.8000, -80.542
1283.9000, -82.477
1284.0000, -80.985
1284.1000, -82.212
1284.2000, -80.631
1284.3000, -81.248
1284.4000, -81.960
1284.5000, -81.697
1284.6000, -83.385
1284.7000, -83.238
1284.8000, -80.958
1284.9000, -80.921
1285.0000, -82.483
1285.1000, -79.479
1285.2000, -84.936
1285.3000,-210.000
1285.4000, -78.919
1285.5000, -80.116
1285.6000, -81.392
1285.7000, -82.017
1285.8000, -80.081
1285.9000, -84.884
1286.0000, -80.574
1286.1000, -80.762
1286.2000, -80.323
1286.3000, -80.609
1286.4000, -81.616
1286.5000, -86.136
1286.6000, -80.665
1286.7000, -81.678
1286.8000, -80.338
1286.9000, -83.635
1287.0000, -80.461
1287.1000, -80.426
1287.2000, -80.700
1287.3000, -80.715
1287.4000, -80.498
1287.5000, -81.171
1287.6000, -82.198
1287.7000, -81.408
1287.8000, -79.371
1287.9000, -84.534
1288.0000, -79.483
1288.1000, -85.299
1288.2000, -80.708
1288.3000, -80.571
1288.4000, -81.539
1288.5000, -82.950
1288.6000, -82.164
1288.7000, -81.620
1288.8000, -83.687
1288.9000, -80.763
1289.0000, -81.080
1289.1000, -80.514
1289.2000, -81.281
1289.3000, -81.183
1289.4000, -83.286
1289.5000, -81.482
1289.6000, -80.962
1289.7000, -81.171
1289.8000, -83.704
1289.9000, -81.275
1290.0000, -80.949
1290.1000, -80.766
1290.2000, -83.079
1290.3000, -81.573
1290.4000, -81.589
1290.5000, -81.549
1290.6000, -81.252
1290.7000, -81.783
1290.8000, -82.337
1290.9000, -81.454
1291.0000, -81.924
1291.1000, -82.456
1291.2000, -83.528
1291.3000, -80.909
1291.4000, -80.186
1291.5000, -82.595
1291.6000, -79.141
1291.7000, -84.906
1291.8000, -84.704
1291.9000, -81.627
1292.0000, -82.098
1292.1000, -80.560
1292.2000, -83.416
1292.3000, -79.197
1292.4000, -82.799
1292.5000, -78.719
1292.6000, -83.151
1292.7000, -83.016
1292.8000, -81.249
1292.9000, -81.339
1293.0000, -82.217
1293.1000, -80.090
1293.2000, -83.366
1293.3000, -81.166
1293.4000, -83.270
1293.5000, -79.879
1293.6000, -79.384
1293.7000, -79.602
1293.8000, -80.466
1293.9000, -89.307
1294.0000,-210.000
1294.1000, -79.415
1294.2000, -81.804
1294.3000, -81.869
1294.4000, -81.773
1294.5000, -81.455
1294.6000, -79.350
1294.7000, -81.717
1294.8000, -79.652
1294.9000, -81.026
1295.0000, -81.856
1295.1000, -81.034
1295.2000, -80.206
1295.3000, -80.298
1295.4000, -80.421
1295.5000, -82.207
1295.6000, -78.844
1295.7000,-210.000
1295.8000, -79.663
1295.9000, -83.489
1296.0000, -79.723
1296.1000, -80.524
1296.2000, -83.236
1296.3000, -79.479
1296.4000, -77.242
1296.5000, -82.043
1296.6000, -81.060
1296.7000, -84.791
1296.8000, -82.110
1296.9000,-210.000
1297.0000, -78.438
1297.1000, -81.238
1297.2000, -82.141
1297.3000, -83.579
1297.4000, -81.058
1297.5000, -81.940
1297.6000, -80.262
1297.7000, -78.651
1297.8000, -82.207
1297.9000, -85.617
1298.0000, -83.433
1298.1000, -79.204
1298.2000, -80.805
1298.3000, -79.550
1298.4000, -86.070
1298.5000, -78.772
1298.6000, -83.639
1298.7000, -80.982
1298.8000, -77.591
1298.9000,-210.000
1299.0000, -78.616
1299.1000, -86.773
1299.2000, -77.163
1299.3000, -83.045
1299.4000, -82.109
1299.5000, -78.753
1299.6000, -81.950
1299.7000, -82.478
1299.8000, -83.402
1299.9000, -79.415
1300.0000,-210.000
1300.1000, -81.705
1300.2000, -80.887
1300.3000, -81.516
1300.4000, -80.119
1300.5000, -81.996
1300.6000, -83.750
1300.7000, -81.574
1300.8000, -80.911
1300.9000, -80.878
1301.0000, -84.993
1301.1000, -79.263
1301.2000, -80.049
1301.3000, -87.038
1301.4000, -78.789
1301.5000, -79.306
1301.6000, -80.273
1301.7000, -78.676
1301.8000, -92.571
1301.9000, -80.127
1302.0000, -82.039
1302.1000, -78.285
1302.2000, -81.720
1302.3000, -89.914
1302.4000, -80.103
1302.5000, -79.994
1302.6000, -80.582
1302.7000, -80.708
1302.8000, -78.743
1302.9000, -84.330
1303.0000, -83.246
1303.1000, -79.142
1303.2000, -80.490
1303.3000, -83.388
1303.4000, -79.892
1303.5000, -82.177
1303.6000, -81.069
1303.7000, -83.459
1303.8000, -80.593
1303.9000, -81.521
1304.0000, -81.780
1304.1000, -81.427
1304.2000, -80.500
1304.3000, -82.421
1304.4000, -82.479
1304.5000, -81.827
1304.6000, -80.395
1304.7000, -81.570
1304.8000, -79.968
1304.9000, -81.667
1305.0000, -79.356
1305.1000, -81.780
1305.2000, -82.023
1305.3000, -80.603
1305.4000, -82.381
1305.5000, -82.774
1305.6000, -81.114
1305.7000, -80.193
1305.8000, -83.032
1305.9000, -79.625
1306.0000, -81.747
1306.1000, -82.691
1306.2000, -81.461
1306.3000, -80.869
1306.4000, -82.385
1306.5000, -81.213
1306.6000, -81.042
1306.7000, -81.572
1306.8000, -79.359
1306.9000, -81.918
1307.0000, -83.450
1307.1000, -82.812
1307.2000, -82.027
1307.3000, -81.096
1307.4000, -81.139
1307.5000, -80.564
1307.6000, -82.006
1307.7000, -80.044
1307.8000, -80.869
1307.9000, -80.862
1308.0000, -82.191
1308.1000, -79.863
1308.2000, -83.415
1308.3000, -80.688
1308.4000, -82.203
1308.5000, -81.160
1308.6000, -81.358
1308.7000, -83.414
1308.8000, -79.758
1308.9000, -81.794
1309.0000, -80.123
1309.1000, -79.410
1309.2000, -88.764
1309.3000, -82.718
1309.4000, -79.040
1309.5000, -87.860
1309.6000, -80.341
1309.7000, -80.465
1309.8000, -82.088
1309.9000, -82.162
1310.0000, -81.054
1310.1000, -80.921
1310.2000, -80.832
1310.3000, -80.923
1310.4000, -81.740
1310.5000, -81.798
1310.6000, -80.990
1310.7000, -82.724
1310.8000, -83.174
1310.9000, -86.047
1311.0000, -80.655
1311.1000, -80.696
1311.2000, -80.286
1311.3000, -82.549
1311.4000, -81.559
1311.5000, -80.302
1311.6000, -81.820
1311.7000, -81.158
1311.8000, -80.655
1311.9000, -78.761
1312.0000,-210.000
1312.1000, -82.081
1312.2000, -81.223
1312.3000, -79.224
1312.4000, -80.588
1312.5000, -84.168
1312.6000, -79.846
1312.7000, -81.181
1312.8000, -79.868
1312.9000, -82.178
1313.0000, -81.446
1313.1000, -83.302
1313.2000, -81.887
1313.3000, -81.185
1313.4000, -80.788
1313.5000, -80.719
1313.6000, -81.617
1313.7000, -80.983
1313.8000, -83.201
1313.9000, -80.794
1314.0000, -80.023
1314.1000, -81.507
1314.2000, -82.371
1314.3000, -81.235
1314.4000, -82.190
1314.5000, -81.440
1314.6000, -83.148
1314.7000, -79.208
1314.8000, -79.680
1314.9000, -82.890
1315.0000, -80.897
1315.1000, -80.178
1315.2000, -79.931
1315.3000, -85.623
1315.4000, -80.917
1315.5000, -79.348
1315.6000, -79.680
1315.7000, -80.307
1315.8000,-210.000
1315.9000, -79.726
1316.0000, -81.686
1316.1000, -83.270
1316.2000, -79.353
1316.3000, -81.947
1316.4000, -86.338
1316.5000, -79.539
1316.6000, -83.312
1316.7000, -83.042
1316.8000, -79.908
1316.9000, -79.479
1317.0000, -81.326
1317.1000, -82.207
1317.2000, -81.067
1317.3000, -80.602
1317.4000, -80.521
1317.5000, -80.676
1317.6000, -81.183
1317.7000, -80.966
1317.8000, -81.612
1317.9000, -80.689
1318.0000, -80.039
1318.1000, -81.864
1318.2000, -80.806
1318.3000, -81.407
1318.4000, -81.202
1318.5000, -81.402
1318.6000, -79.705
1318.7000, -80.437
1318.8000, -80.358
1318.9000, -81.551
1319.0000, -80.794
1319.1000, -80.022
1319.2000, -81.241
1319.3000, -79.904
1319.4000, -79.446
1319.5000, -82.083
1319.6000, -81.309
1319.7000, -79.538
1319.8000, -79.595
1319.9000, -80.426
1320.0000, -80.960
1320.1000, -80.325
1320.2000, -81.008
1320.3000, -78.141
1320.4000, -86.578
1320.5000, -81.000
1320.6000, -80.822
1320.7000, -80.331
1320.8000, -80.116
1320.9000, -77.515
1321.0000, -98.622
1321.1000, -81.181
1321.2000, -80.651
1321.3000, -82.158
1321.4000, -79.583
1321.5000, -80.666
1321.6000, -80.440
1321.7000, -80.651
1321.8000, -83.033
1321.9000, -81.230
1322.0000, -79.526
1322.1000, -80.822
1322.2000, -82.978
1322.3000, -81.666
1322.4000, -81.205
1322.5000, -78.983
1322.6000, -82.179
1322.7000, -81.680
1322.8000, -82.037
1322.9000, -82.476
1323.0000, -81.688
1323.1000, -81.441
1323.2000, -79.898
1323.3000, -80.003
1323.4000, -79.359
1323.5000, -84.334
1323.6000, -79.119
1323.7000, -86.676
1323.8000, -82.402
1323.9000, -84.096
1324.0000, -81.534
1324.1000, -81.007
1324.2000, -80.357
1324.3000, -82.005
1324.4000, -81.854
1324.5000, -81.605
1324.6000, -81.946
1324.7000, -81.235
1324.8000, -81.109
1324.9000, -82.437
1325.0000, -81.675
1325.1000, -82.148
1325.2000, -81.924
1325.3000, -80.262
1325.4000, -87.581
1325.5000, -77.923
1325.6000, -81.326
1325.7000, -82.948
1325.8000, -82.615
1325.9000, -81.004
1326.0000, -78.133
1326.1000, -79.711
1326.2000, -87.518
1326.3000, -80.542
1326.4000, -82.867
1326.5000, -82.437
1326.6000, -80.937
1326.7000, -81.219
1326.8000, -80.256
1326.9000, -80.946
1327.0000, -82.195
1327.1000, -80.928
1327.2000, -80.049
1327.3000, -81.359
1327.4000, -81.789
1327.5000, -79.658
1327.6000, -84.750
1327.7000, -78.389
1327.8000, -80.241
1327.9000,-210.000
1328.0000, -79.700
1328.1000, -85.293
1328.2000, -78.020
1328.3000, -82.407
1328.4000, -83.001
1328.5000, -82.891
1328.6000, -81.634
1328.7000, -82.604
1328.8000, -81.701
1328.9000, -80.428
1329.0000, -80.381
1329.1000, -81.792
1329.2000, -82.409
1329.3000, -80.244
1329.4000, -78.804
1329.5000, -81.642
1329.6000, -81.423
1329.7000, -84.768
1329.8000, -79.978
1329.9000, -86.320
1330.0000, -80.259
1330.1000, -82.291
1330.2000, -80.215
1330.3000, -82.850
1330.4000, -81.409
1330.5000, -79.964
1330.6000, -80.702
1330.7000, -80.327
1330.8000, -79.890
1330.9000, -82.419
1331.0000, -77.969
1331.1000, -84.146
1331.2000, -78.952
1331.3000, -88.263
1331.4000, -82.220
1331.5000, -79.286
1331.6000, -80.250
1331.7000, -82.657
1331.8000, -80.025
1331.9000, -80.302
1332.0000, -83.940
1332.1000, -79.358
1332.2000, -79.653
1332.3000, -92.016
1332.4000, -78.956
1332.5000, -89.145
1332.6000, -81.258
1332.7000, -78.140
1332.8000, -80.944
1332.9000, -80.613
1333.0000, -80.764
1333.1000, -83.648
1333.2000, -79.637
1333.3000, -84.336
1333.4000, -80.039
1333.5000, -81.654
1333.6000, -83.841
1333.7000, -84.618
1333.8000, -76.751
1333.9000,-210.000
1334.0000, -80.444
1334.1000, -78.210
1334.2000, -81.294
1334.3000, -80.860
1334.4000, -81.166
1334.5000, -80.705
1334.6000, -83.522
1334.7000, -80.072
1334.8000, -79.771
1334.9000, -80.863
1335.0000, -80.444
1335.1000, -80.987
1335.2000, -81.347
1335.3000, -81.735
1335.4000, -80.365
1335.5000, -80.303
1335.6000, -80.889
1335.7000, -80.509
1335.8000, -82.005
1335.9000, -80.156
1336.0000, -81.855
1336.1000, -79.968
1336.2000, -80.381
1336.3000, -81.953
1336.4000, -81.838
1336.5000, -81.560
1336.6000, -78.687
1336.7000, -80.980
1336.8000, -80.807
1336.9000, -81.548
1337.0000, -81.498
1337.1000, -80.523
1337.2000, -81.098
1337.3000, -83.601
1337.4000, -81.814
1337.5000, -80.136
1337.6000, -79.983
1337.7000, -81.769
1337.8000, -81.243
1337.9000, -80.841
1338.0000, -80.066
1338.1000, -81.153
1338.2000, -80.950
1338.3000, -79.823
1338.4000, -80.757
1338.5000, -81.910
1338.6000, -79.854
1338.7000, -79.473
1338.8000, -79.419
1338.9000, -80.358
1339.0000, -82.557
1339.1000, -81.159
1339.2000, -80.172
1339.3000, -80.004
1339.4000, -81.231
1339.5000, -80.495
1339.6000, -79.765
1339.7000, -81.590
1339.8000, -82.221
1339.9000, -82.731
1340.0000, -79.482
1340.1000, -82.671
1340.2000, -79.816
1340.3000, -81.308
1340.4000, -81.611
1340.5000, -80.072
1340.6000, -80.910
1340.7000, -80.365
1340.8000, -80.091
1340.9000, -81.930
1341.0000, -85.326
1341.1000, -79.493
1341.2000, -81.595
1341.3000, -80.243
1341.4000, -81.747
1341.5000, -80.060
1341.6000, -79.927
1341.7000, -82.051
1341.8000, -80.345
1341.9000, -81.668
1342.0000, -79.623
1342.1000, -81.534
1342.2000, -79.140
1342.3000, -81.601
1342.4000, -82.502
1342.5000, -78.629
1342.6000, -85.990
1342.7000, -81.488
1342.8000, -80.415
1342.9000, -81.029
1343.0000, -81.125
1343.1000, -82.401
1343.2000, -81.003
1343.3000, -80.110
1343.4000, -81.998
1343.5000, -80.264
1343.6000, -82.522
1343.7000, -80.776
1343.8000, -81.736
1343.9000, -81.157
1344.0000, -80.736
1344.1000, -80.985
1344.2000, -81.316
1344.3000, -82.949
1344.4000, -80.390
1344.5000, -85.491
1344.6000, -79.804
1344.7000, -79.529
1344.8000, -82.050
1344.9000, -79.606
1345.0000,-100.451
1345.1000, -78.223
1345.2000, -82.131
1345.3000, -80.263
1345.4000, -80.886
1345.5000, -81.280
1345.6000, -86.108
1345.7000, -79.842
1345.8000, -81.415
1345.9000, -80.171
1346.0000, -81.690
1346.1000, -85.543
1346.2000, -79.563
1346.3000, -81.957
1346.4000, -81.751
1346.5000, -81.864
1346.6000, -79.161
1346.7000, -83.470
1346.8000, -81.425
1346.9000, -80.563
1347.0000, -78.871
1347.1000, -84.885
1347.2000, -81.645
1347.3000, -80.869
1347.4000, -80.626
1347.5000, -82.566
1347.6000, -80.143
1347.7000, -80.006
1347.8000, -82.395
1347.9000, -82.358
1348.0000, -80.781
1348.1000, -81.461
1348.2000, -81.330
1348.3000, -80.961
1348.4000, -80.803
1348.5000, -81.309
1348.6000, -80.795
1348.7000, -83.212
1348.8000, -80.289
1348.9000, -80.499
1349.0000, -81.177
1349.1000, -80.095
1349.2000, -82.838
1349.3000, -81.971
1349.4000, -80.747
1349.5000, -82.767
1349.6000, -80.123
1349.7000, -81.936
1349.8000, -81.028
1349.9000, -82.062
1350.0000, -81.372
1350.1000, -84.705
1350.2000, -80.553
1350.3000, -81.549
1350.4000, -79.692
1350.5000, -81.484
1350.6000, -81.194
1350.7000, -81.349
1350.8000, -82.279
1350.9000, -79.798
1351.0000, -81.249
1351.1000, -85.916
1351.2000, -81.244
1351.3000, -80.863
1351.4000, -80.219
1351.5000, -81.422
1351.6000, -80.740
1351.7000, -81.525
1351.8000, -81.210
1351.9000, -79.604
1352.0000, -79.766
1352.1000,-210.000
1352.2000, -78.347
1352.3000, -82.137
1352.4000, -82.110
1352.5000, -87.003
1352.6000, -81.264
1352.7000, -81.699
1352.8000, -84.367
1352.9000, -79.521
1353.0000, -79.612
1353.1000, -80.455
1353.2000, -84.827
1353.3000, -81.564
1353.4000, -81.915
1353.5000, -77.899
1353.6000, -79.822
1353.7000, -82.561
1353.8000, -85.673
1353.9000, -83.654
1354.0000, -79.857
1354.1000, -82.398
1354.2000, -81.682
1354.3000, -80.780
1354.4000, -82.800
1354.5000, -80.412
1354.6000, -79.541
1354.7000, -79.934
1354.8000,-210.000
1354.9000, -80.724
1355.0000, -81.030
1355.1000, -79.281
1355.2000, -81.469
1355.3000, -82.566
1355.4000, -81.870
1355.5000, -83.784
1355.6000, -81.304
1355.7000, -80.954
1355.8000, -81.144
1355.9000, -80.769
1356.0000, -82.894
1356.1000, -80.764
1356.2000, -81.708
1356.3000, -81.887
1356.4000, -80.921
1356.5000, -81.045
1356.6000, -81.183
1356.7000, -83.781
1356.8000, -82.411
1356.9000, -79.263
1357.0000, -78.773
1357.1000, -82.530
1357.2000, -80.391
1357.3000, -80.911
1357.4000, -78.511
1357.5000, -82.221
1357.6000, -80.062
1357.7000, -80.120
1357.8000, -83.217
1357.9000, -81.629
1358.0000, -83.721
1358.1000, -82.854
1358.2000, -80.402
1358.3000, -81.584
1358.4000, -82.835
1358.5000, -82.319
1358.6000, -81.263
1358.7000, -80.944
1358.8000, -80.061
1358.9000, -81.638
1359.0000, -79.614
1359.1000, -80.805
1359.2000, -81.150
1359.3000, -79.520
1359.4000, -85.010
1359.5000, -81.239
1359.6000, -80.395
1359.7000, -82.412
1359.8000, -83.278
1359.9000, -81.896
1360.0000, -81.697
1360.1000, -80.491
1360.2000, -81.122
1360.3000, -81.760
1360.4000, -81.807
1360.5000, -79.168
1360.6000, -81.179
1360.7000, -85.793
1360.8000, -79.046
1360.9000, -80.605
1361.0000, -81.490
1361.1000, -80.326
1361.2000, -80.540
1361.3000, -91.398
1361.4000, -80.764
1361.5000, -79.674
1361.6000, -79.193
1361.7000, -92.930
1361.8000, -80.100
1361.9000, -83.487
1362.0000, -79.739
1362.1000, -79.287
1362.2000, -82.584
1362.3000, -81.094
1362.4000, -81.662
1362.5000, -85.223
1362.6000, -85.463
1362.7000, -81.191
1362.8000, -81.523
1362.9000, -81.244
1363.0000, -83.673
1363.1000, -82.153
1363.2000, -80.368
1363.3000, -80.140
1363.4000, -83.205
1363.5000, -80.688
1363.6000, -82.016
1363.7000, -81.392
1363.8000, -81.471
1363.9000, -84.289
1364.0000, -88.393
1364.1000, -79.663
1364.2000, -80.516
1364.3000, -81.207
1364.4000, -81.821
1364.5000, -80.387
1364.6000, -80.906
1364.7000, -80.811
1364.8000, -82.384
1364.9000, -83.929
1365.0000, -82.253
1365.1000, -80.633
1365.2000, -85.468
1365.3000, -79.585
1365.4000, -83.950
1365.5000, -82.109
1365.6000, -80.321
1365.7000, -82.599
1365.8000, -81.259
1365.9000, -82.551
1366.0000, -83.102
1366.1000, -81.079
1366.2000, -83.025
1366.3000, -80.311
1366.4000, -82.904
1366.5000, -83.033
1366.6000, -80.154
1366.7000, -80.392
1366.8000, -83.053
1366.9000, -82.155
1367.0000, -82.152
1367.1000, -81.848
1367.2000, -81.143
1367.3000, -80.488
1367.4000, -85.590
1367.5000, -86.313
1367.6000, -77.999
1367.7000, -79.099
1367.8000, -82.591
1367.9000,-210.000
1368.0000, -79.188
1368.1000, -78.991
1368.2000, -81.710
1368.3000, -87.012
1368.4000, -80.025
1368.5000, -80.539
1368.6000, -81.378
1368.7000, -80.272
1368.8000, -85.454
1368.9000, -82.546
1369.0000, -80.665
1369.1000, -79.562
1369.2000, -91.311
1369.3000, -80.454
1369.4000, -81.646
1369.5000,-210.000
1369.6000, -78.468
1369.7000, -85.799
1369.8000, -79.125
1369.9000, -81.432
1370.0000, -81.269
1370.1000, -81.429
1370.2000, -81.674
1370.3000, -79.850
1370.4000, -79.747
1370.5000, -88.645
1370.6000, -79.740
1370.7000, -82.651
1370.8000, -84.393
1370.9000, -81.104
1371.0000, -78.851
1371.1000, -82.998
1371.2000, -81.551
1371.3000, -83.554
1371.4000, -82.369
1371.5000, -80.154
1371.6000, -82.173
1371.7000, -80.575
1371.8000, -81.050
1371.9000, -81.622
1372.0000, -79.403
1372.1000, -82.476
1372.2000, -85.444
1372.3000, -80.428
1372.4000, -78.636
1372.5000,-210.000
1372.6000, -76.492
1372.7000, -82.294
1372.8000, -80.184
1372.9000, -80.714
1373.0000, -79.682
1373.1000, -79.561
1373.2000, -80.938
1373.3000, -83.314
1373.4000,-210.000
1373.5000,-210.000
1373.6000, -78.341
1373.7000, -80.521
1373.8000, -82.827
1373.9000, -85.134
1374.0000, -84.663
1374.1000, -81.035
1374.2000, -79.273
1374.3000, -91.529
1374.4000, -81.138
1374.5000, -81.431
1374.6000, -80.127
1374.7000, -81.124
1374.8000, -81.018
1374.9000, -82.105
1375.0000, -80.884
1375.1000, -81.795
1375.2000, -81.304
1375.3000, -83.757
1375.4000, -82.150
1375.5000, -78.707
1375.6000, -83.003
1375.7000, -85.948
1375.8000, -79.271
1375.9000, -81.285
1376.0000, -80.041
1376.1000, -81.363
1376.2000, -80.629
1376.3000, -79.846
1376.4000, -78.273
1376.5000, -81.215
1376.6000, -82.895
1376.7000, -80.067
1376.8000, -80.916
1376.9000, -81.948
1377.0000, -80.508
1377.1000, -85.284
1377.2000, -81.861
1377.3000, -81.421
1377.4000, -80.286
1377.5000, -82.116
1377.6000, -80.485
1377.7000, -82.229
1377.8000,-210.000
1377.9000, -80.070
1378.0000, -82.601
1378.1000, -80.713
1378.2000, -80.603
1378.3000, -80.983
1378.4000, -80.076
1378.5000, -80.051
1378.6000, -84.431
1378.7000, -80.476
1378.8000, -80.184
1378.9000, -81.421
1379.0000, -80.923
1379.1000, -83.687
1379.2000, -81.898
1379.3000, -80.696
1379.4000, -80.982
1379.5000, -82.399
1379.6000, -80.553
1379.7000, -81.382
1379.8000, -81.435
1379.9000, -81.667
1380.0000, -81.504
1380.1000, -80.544
1380.2000, -80.475
1380.3000, -81.910
1380.4000, -80.507
1380.5000, -81.624
1380.6000, -85.046
1380.7000, -81.105
1380.8000, -81.263
1380.9000, -79.937
1381.0000, -80.899
1381.1000, -80.838
1381.2000, -79.749
1381.3000, -92.896
1381.4000, -81.661
1381.5000, -81.150
1381.6000, -81.004
1381.7000, -83.177
1381.8000, -80.991
1381.9000, -80.702
1382.0000, -80.402
1382.1000, -82.167
1382.2000, -82.161
1382.3000, -81.325
1382.4000, -81.545
1382.5000, -81.172
1382.6000, -81.136
1382.7000, -81.516
1382.8000, -83.238
1382.9000, -80.969
1383.0000, -79.899
1383.1000, -82.288
1383.2000, -80.331
1383.3000, -83.186
1383.4000, -79.640
1383.5000, -83.452
1383.6000, -80.957
1383.7000, -82.676
1383.8000, -81.391
1383.9000, -82.762
1384.0000, -78.505
1384.1000, -81.598
1384.2000, -82.217
1384.3000, -80.172
1384.4000, -81.119
1384.5000, -83.361
1384.6000, -78.551
1384.7000, -79.999
1384.8000, -82.068
1384.9000, -82.433
1385.0000, -81.795
1385.1000, -82.110
1385.2000, -81.190
1385.3000, -82.365
1385.4000, -81.607
1385.5000, -85.373
1385.6000, -81.475
1385.7000, -78.847
1385.8000, -81.927
1385.9000, -83.077
1386.0000, -81.148
1386.1000, -79.302
1386.2000, -84.336
1386.3000, -82.803
1386.4000, -80.231
1386.5000, -78.736
1386.6000, -82.406
1386.7000, -79.944
1386.8000, -80.981
1386.9000, -82.128
1387.0000, -79.564
1387.1000, -88.479
1387.2000, -81.194
1387.3000, -82.048
1387.4000, -82.472
1387.5000, -79.393
1387.6000, -83.217
1387.7000, -83.432
1387.8000, -81.493
1387.9000, -77.793
1388.0000, -80.093
1388.1000, -86.310
1388.2000, -83.947
1388.3000, -80.170
1388.4000, -79.079
1388.5000,-210.000
1388.6000, -79.669
1388.7000, -80.545
1388.8000, -84.340
1388.9000, -81.438
1389.0000, -79.622
1389.1000, -82.779
1389.2000, -81.427
1389.3000, -85.703
1389.4000, -80.645
1389.5000, -80.352
1389.6000, -81.673
1389.7000, -80.206
1389.8000, -83.512
1389.9000, -81.790
1390.0000, -81.789
1390.1000, -79.936
1390.2000, -82.848
1390.3000, -80.111
1390.4000, -82.723
1390.5000, -80.770
1390.6000, -81.264
1390.7000, -81.957
1390.8000, -83.726
1390.9000, -81.774
1391.0000, -80.533
1391.1000, -81.308
1391.2000, -79.832
1391.3000, -82.076
1391.4000, -81.513
1391.5000, -83.266
1391.6000, -83.758
1391.7000, -79.091
1391.8000, -80.759
1391.9000, -84.388
1392.0000, -81.029
1392.1000, -80.443
1392.2000, -80.652
1392.3000, -83.005
1392.4000, -81.489
1392.5000, -79.796
1392.6000, -82.112
1392.7000, -82.942
1392.8000, -82.124
1392.9000, -81.420
1393.0000, -79.695
1393.1000, -83.044
1393.2000, -81.907
1393.3000, -81.785
1393.4000, -80.227
1393.5000, -81.838
1393.6000, -81.214
1393.7000, -82.603
1393.8000, -79.691
1393.9000, -80.521
1394.0000, -82.970
1394.1000, -81.095
1394.2000, -81.586
1394.3000, -80.205
1394.4000, -80.826
1394.5000, -82.423
1394.6000, -81.254
1394.7000, -81.983
1394.8000, -82.145
1394.9000, -80.855
1395.0000, -80.740
1395.1000, -80.286
1395.2000, -81.124
1395.3000, -81.106
1395.4000, -81.054
1395.5000, -80.006
1395.6000, -80.944
1395.7000, -85.199
1395.8000, -79.456
1395.9000, -80.749
1396.0000, -82.122
1396.1000, -79.199
1396.2000, -82.479
1396.3000, -80.890
1396.4000, -81.026
1396.5000, -82.967
1396.6000, -79.821
1396.7000, -81.921
1396.8000, -80.425
1396.9000, -81.760
1397.0000, -83.697
1397.1000, -81.043
1397.2000, -80.260
1397.3000, -80.542
1397.4000, -81.086
1397.5000, -82.718
1397.6000, -80.188
1397.7000, -80.616
1397.8000, -81.971
1397.9000, -79.766
1398.0000, -80.209
1398.1000, -79.953
1398.2000, -78.697
1398.3000, -80.331
1398.4000,-210.000
1398.5000, -78.483
1398.6000, -80.284
1398.7000, -80.781
1398.8000, -79.049
1398.9000, -81.526
1399.0000, -80.674
1399.1000, -80.682
1399.2000, -80.539
1399.3000, -80.709
1399.4000, -82.577
1399.5000, -81.171
1399.6000, -81.359
1399.7000, -80.577
1399.8000, -81.883
1399.9000, -80.936
1400.0000, -79.782
1400.1000, -83.808
1400.2000, -79.203
1400.3000, -80.587
1400.4000, -81.959
1400.5000, -81.104
1400.6000, -80.945
1400.7000, -80.448
1400.8000, -79.894
1400.9000, -87.559
1401.0000, -79.307
1401.1000, -82.057
1401.2000, -80.939
1401.3000, -81.279
1401.4000, -81.418
1401.5000, -80.439
1401.6000, -81.704
1401.7000, -82.526
1401.8000, -80.006
1401.9000, -81.040
1402.0000, -79.467
1402.1000, -80.837
1402.2000, -85.034
1402.3000, -81.557
1402.4000, -80.250
1402.5000, -79.568
1402.6000, -79.603
1402.7000, -81.087
1402.8000, -80.394
1402.9000, -83.659
1403.0000, -80.753
1403.1000, -81.029
1403.2000, -80.257
1403.3000, -81.660
1403.4000, -81.047
1403.5000, -81.309
1403.6000, -79.089
1403.7000, -85.146
1403.8000, -79.641
1403.9000, -79.677
1404.0000, -87.986
1404.1000, -80.151
1404.2000, -83.816
1404.3000, -81.871
1404.4000, -78.495
1404.5000, -78.482
1404.6000, -81.853
1404.7000, -82.731
1404.8000, -81.504
1404.9000, -79.055
1405.0000, -85.126
1405.1000, -80.069
1405.2000, -85.857
1405.3000, -78.461
1405.4000, -81.326
1405.5000, -81.959
1405.6000, -83.147
1405.7000, -84.109
1405.8000, -81.486
1405.9000, -79.442
1406.0000, -81.728
1406.1000, -79.040
1406.2000, -82.623
1406.3000, -79.213
1406.4000, -85.968
1406.5000, -79.941
1406.6000, -79.197
1406.7000, -79.819
1406.8000, -85.629
1406.9000, -82.806
1407.0000, -80.300
1407.1000, -80.459
1407.2000, -80.379
1407.3000, -79.308
1407.4000, -78.579
1407.5000, -82.189
1407.6000, -81.215
1407.7000, -80.539
1407.8000, -81.115
1407.9000, -82.222
1408.0000, -81.402
1408.1000, -80.432
1408.2000, -80.044
1408.3000, -80.884
1408.4000, -79.528
1408.5000, -78.931
1408.6000, -79.783
1408.7000, -83.336
1408.8000, -82.414
1408.9000, -82.128
1409.0000, -79.018
1409.1000, -86.289
1409.2000, -79.464
1409.3000, -79.683
1409.4000, -81.728
1409.5000, -82.671
1409.6000, -78.919
1409.7000, -81.099
1409.8000, -80.364
1409.9000, -79.540
1410.0000, -79.953
1410.1000, -80.135
1410.2000, -87.217
1410.3000, -78.017
1410.4000, -81.348
1410.5000, -81.848
1410.6000, -81.997
1410.7000, -80.904
1410.8000, -81.490
1410.9000, -79.465
1411.0000, -78.019
1411.1000, -80.803
1411.2000, -83.286
1411.3000, -81.749
1411.4000, -81.611
1411.5000, -79.534
1411.6000, -90.741
1411.7000, -78.324
1411.8000, -80.059
1411.9000, -79.017
1412.0000,-210.000
1412.1000, -80.482
1412.2000, -80.980
1412.3000, -80.586
1412.4000, -80.038
1412.5000, -81.231
1412.6000, -85.107
1412.7000, -78.481
1412.8000, -79.374
1412.9000, -79.029
1413.0000, -86.441
1413.1000, -83.001
1413.2000, -78.157
1413.3000, -80.445
1413.4000, -77.745
1413.5000, -84.130
1413.6000, -80.669
1413.7000, -80.542
1413.8000, -79.829
1413.9000, -83.502
1414.0000, -80.343
1414.1000, -80.811
1414.2000, -79.520
1414.3000, -80.694
1414.4000, -85.393
1414.5000, -78.368
1414.6000, -82.816
1414.7000, -81.169
1414.8000, -79.614
1414.9000, -81.951
1415.0000, -80.073
1415.1000, -80.773
1415.2000, -79.869
1415.3000, -80.731
1415.4000, -81.453
1415.5000, -82.956
1415.6000, -79.760
1415.7000, -80.067
1415.8000, -80.165
1415.9000, -80.438
1416.0000, -80.181
1416.1000, -82.076
1416.2000, -80.215
1416.3000, -78.764
1416.4000, -81.756
1416.5000, -79.554
1416.6000, -80.814
1416.7000, -81.795
1416.8000, -83.641
1416.9000, -77.020
1417.0000, -81.292
1417.1000, -79.621
1417.2000, -79.110
1417.3000, -82.940
1417.4000, -80.757
1417.5000, -80.654
1417.6000, -79.739
1417.7000, -80.621
1417.8000, -79.826
1417.9000, -83.817
1418.0000, -79.281
1418.1000, -79.487
1418.2000, -80.609
1418.3000, -79.494
1418.4000, -85.209
1418.5000, -82.501
1418.6000, -80.815
1418.7000, -79.892
1418.8000, -79.178
1418.9000, -82.964
1419.0000, -79.985
1419.1000, -80.488
1419.2000, -80.487
1419.3000, -81.546
1419.4000, -80.609
1419.5000, -80.244
1419.6000, -79.126
1419.7000, -82.434
1419.8000, -82.067
1419.9000, -80.051
1420.0000, -79.812
1420.1000, -78.565
1420.2000, -81.987
1420.3000, -78.495
1420.4000, -81.145
1420.5000, -79.237
1420.6000, -83.479
1420.7000, -83.879
1420.8000, -78.103
1420.9000, -82.703
1421.0000, -78.630
1421.1000, -80.913
1421.2000, -80.501
1421.3000, -80.280
1421.4000, -81.588
1421.5000, -81.040
1421.6000, -81.280
1421.7000, -79.554
1421.8000, -80.515
1421.9000, -79.465
1422.0000, -79.912
1422.1000, -80.573
1422.2000, -78.778
1422.3000, -79.221
1422.4000, -85.032
1422.5000, -80.251
1422.6000, -80.730
1422.7000, -82.162
1422.8000, -81.056
1422.9000, -81.271
1423.0000, -79.913
1423.1000, -79.813
1423.2000, -84.235
1423.3000, -79.821
1423.4000, -80.655
1423.5000, -81.837
1423.6000, -81.187
1423.7000, -84.721
1423.8000, -78.381
1423.9000, -83.224
1424.0000, -83.665
1424.1000, -79.755
1424.2000, -79.967
1424.3000, -79.622
1424.4000, -80.012
1424.5000, -78.251
1424.6000, -82.025
1424.7000, -79.694
1424.8000, -91.747
1424.9000, -78.144
1425.0000, -81.354
1425.1000, -80.410
1425.2000, -81.272
1425.3000, -82.300
1425.4000, -80.853
1425.5000, -81.264
1425.6000, -78.864
1425.7000, -81.244
1425.8000, -81.545
1425.9000, -80.184
1426.0000, -80.276
1426.1000, -80.332
1426.2000, -82.872
1426.3000, -81.137
1426.4000, -82.281
1426.5000, -78.462
1426.6000, -80.243
1426.7000, -82.406
1426.8000, -80.165
1426.9000, -79.776
1427.0000, -79.009
1427.1000, -80.477
1427.2000, -80.199
1427.3000, -81.152
1427.4000, -81.572
1427.5000, -78.810
1427.6000, -82.787
1427.7000, -79.691
1427.8000, -81.991
1427.9000, -85.692
1428.0000, -80.637
1428.1000, -80.630
1428.2000, -80.816
1428.3000, -79.440
1428.4000, -79.651
1428.5000, -81.027
1428.6000, -79.283
1428.7000, -80.413
1428.8000, -78.524
1428.9000, -81.926
1429.0000, -81.935
1429.1000, -80.830
1429.2000, -80.787
1429.3000, -80.800
1429.4000, -81.254
1429.5000, -80.118
1429.6000, -79.547
1429.7000, -80.850
1429.8000, -80.153
1429.9000, -80.827
1430.0000, -81.523
1430.1000, -78.821
1430.2000, -79.122
1430.3000, -81.858
1430.4000, -82.111
1430.5000, -80.276
1430.6000, -79.611
1430.7000, -80.560
1430.8000, -80.156
1430.9000, -83.452
1431.0000, -79.785
1431.1000, -79.158
1431.2000, -81.934
1431.3000, -80.403
1431.4000, -79.312
1431.5000, -79.332
1431.6000, -82.493
1431.7000, -79.786
1431.8000, -83.119
1431.9000, -78.819
1432.0000, -80.216
1432.1000, -80.515
1432.2000, -80.576
1432.3000, -79.024
1432.4000, -81.958
1432.5000, -82.493
1432.6000, -79.673
1432.7000, -80.397
1432.8000, -80.961
1432.9000, -80.120
1433.0000, -79.945
1433.1000, -82.925
1433.2000, -80.034
1433.3000, -78.906
1433.4000, -81.010
1433.5000, -79.236
1433.6000, -79.780
1433.7000, -81.992
1433.8000, -82.970
1433.9000, -79.629
1434.0000, -80.299
1434.1000, -79.972
1434.2000, -81.501
1434.3000, -81.239
1434.4000, -80.910
1434.5000, -80.391
1434.6000, -79.664
1434.7000, -80.544
1434.8000, -80.999
1434.9000, -80.280
1435.0000, -80.523
1435.1000, -80.270
1435.2000, -80.797
1435.3000, -79.709
1435.4000, -81.802
1435.5000, -80.456
1435.6000, -80.482
1435.7000, -80.418
1435.8000, -80.002
1435.9000, -81.218
1436.0000, -80.822
1436.1000, -82.298
1436.2000, -80.030
1436.3000, -80.350
1436.4000, -81.130
1436.5000, -79.345
1436.6000, -81.840
1436.7000, -80.518
1436.8000, -80.551
1436.9000, -81.759
1437.0000, -81.224
1437.1000, -79.546
1437.2000, -79.329
1437.3000, -80.381
1437.4000, -79.894
1437.5000, -83.971
1437.6000, -80.292
1437.7000, -81.260
1437.8000, -82.123
1437.9000, -80.603
1438.0000, -80.836
1438.1000, -79.822
1438.2000, -80.061
1438.3000, -79.595
1438.4000, -79.810
1438.5000, -80.940
1438.6000, -82.654
1438.7000, -79.723
1438.8000, -79.637
1438.9000, -80.518
1439.0000, -80.834
1439.1000, -79.691
1439.2000, -81.774
1439.3000, -82.149
1439.4000, -81.037
1439.5000, -80.132
1439.6000, -81.904
1439.7000, -81.412
1439.8000, -80.596
1439.9000, -80.297
1440.0000, -81.351
1440.1000, -81.233
1440.2000, -78.247
1440.3000, -80.549
1440.4000, -92.767
1440.5000, -80.096
1440.6000, -78.846
1440.7000, -81.919
1440.8000, -81.853
1440.9000, -81.734
1441.0000, -81.897
1441.1000, -79.880
1441.2000, -81.693
1441.3000, -81.628
1441.4000, -80.108
1441.5000, -81.923
1441.6000, -82.409
1441.7000, -81.133
1441.8000, -81.679
1441.9000, -79.351
1442.0000, -80.195
1442.1000, -81.450
1442.2000, -82.032
1442.3000, -80.249
1442.4000, -81.228
1442.5000, -80.953
1442.6000, -81.800
1442.7000, -79.214
1442.8000, -80.440
1442.9000, -81.434
1443.0000, -79.026
1443.1000, -81.142
1443.2000, -79.741
1443.3000, -79.561
1443.4000, -81.677
1443.5000, -80.079
1443.6000, -78.083
1443.7000, -85.073
1443.8000, -82.981
1443.9000, -80.322
1444.0000, -79.621
1444.1000, -80.114
1444.2000, -80.506
1444.3000, -83.873
1444.4000, -79.845
1444.5000, -80.928
1444.6000, -83.021
1444.7000, -79.324
1444.8000, -83.558
1444.9000, -81.245
1445.0000, -80.249
1445.1000, -79.253
1445.2000, -81.198
1445.3000, -80.602
1445.4000, -83.138
1445.5000, -81.652
1445.6000, -80.584
1445.7000, -80.366
1445.8000, -80.545
1445.9000, -81.700
1446.0000, -80.085
1446.1000, -78.909
1446.2000, -82.403
1446.3000, -80.415
1446.4000, -80.176
1446.5000, -81.735
1446.6000, -80.653
1446.7000, -79.429
1446.8000, -84.992
1446.9000, -80.795
1447.0000, -81.825
1447.1000, -80.531
1447.2000, -78.995
1447.3000, -80.408
1447.4000, -81.365
1447.5000, -79.990
1447.6000, -83.070
1447.7000, -79.919
1447.8000, -78.741
1447.9000, -81.349
1448.0000, -82.046
1448.1000, -79.978
1448.2000, -79.273
1448.3000, -79.876
1448.4000, -80.924
1448.5000, -79.401
1448.6000, -87.554
1448.7000, -82.724
1448.8000, -80.403
1448.9000, -78.670
1449.0000, -80.194
1449.1000, -80.346
1449.2000, -79.549
1449.3000, -80.759
1449.4000, -80.056
1449.5000, -85.537
1449.6000, -81.408
1449.7000, -79.896
1449.8000, -78.823
1449.9000, -85.089
1450.0000, -79.019
1450.1000, -87.553
1450.2000, -80.163
1450.3000, -84.885
1450.4000, -79.327
1450.5000, -81.209
1450.6000, -80.276
1450.7000, -79.115
1450.8000, -80.892
1450.9000, -80.648
1451.0000, -80.314
1451.1000, -81.355
1451.2000, -80.949
1451.3000, -83.291
1451.4000, -80.426
1451.5000, -80.689
1451.6000, -82.917
1451.7000, -81.720
1451.8000, -79.624
1451.9000, -79.657
1452.0000, -80.541
1452.1000, -81.270
1452.2000, -80.188
1452.3000, -81.089
1452.4000, -81.340
1452.5000, -81.753
1452.6000, -79.990
1452.7000, -80.946
1452.8000, -82.167
1452.9000, -80.973
1453.0000, -79.801
1453.1000, -81.356
1453.2000, -79.329
1453.3000, -83.635
1453.4000, -78.900
1453.5000, -81.033
1453.6000, -81.716
1453.7000, -82.808
1453.8000, -79.609
1453.9000, -82.761
1454.0000, -79.996
1454.1000, -80.379
1454.2000, -81.592
1454.3000, -80.653
1454.4000, -81.037
1454.5000, -80.904
1454.6000, -84.283
1454.7000, -78.859
1454.8000, -80.247
1454.9000, -80.459
1455.0000, -80.065
1455.1000, -80.146
1455.2000, -79.924
1455.3000, -81.540
1455.4000, -80.199
1455.5000, -79.080
1455.6000, -82.548
1455.7000, -80.478
1455.8000, -81.424
1455.9000, -80.175
1456.0000, -80.729
1456.1000, -81.455
1456.2000, -80.309
1456.3000, -80.778
1456.4000, -80.092
1456.5000, -81.936
1456.6000, -80.078
1456.7000, -80.744
1456.8000, -80.194
1456.9000, -80.722
1457.0000, -80.465
1457.1000, -82.426
1457.2000, -81.899
1457.3000, -80.005
1457.4000, -80.298
1457.5000, -80.458
1457.6000, -80.417
1457.7000, -81.448
1457.8000, -79.116
1457.9000, -82.875
1458.0000, -80.033
1458.1000, -80.064
1458.2000, -83.504
1458.3000, -79.694
1458.4000, -79.812
1458.5000, -80.540
1458.6000, -77.731
1458.7000, -84.122
1458.8000, -81.914
1458.9000, -81.785
1459.0000, -81.287
1459.1000, -77.070
1459.2000, -88.531
1459.3000, -80.275
1459.4000, -80.006
1459.5000, -80.996
1459.6000, -80.963
1459.7000, -80.241
1459.8000, -82.352
1459.9000, -80.726
1460.0000, -80.988
1460.1000, -79.753
1460.2000, -79.847
1460.3000, -81.692
1460.4000, -80.898
1460.5000, -79.693
1460.6000, -81.499
1460.7000, -80.562
1460.8000, -80.706
1460.9000, -79.002
1461.0000, -84.088
1461.1000, -78.011
1461.2000, -81.266
1461.3000, -80.659
1461.4000, -79.033
1461.5000, -84.896
1461.6000, -83.003
1461.7000, -80.151
1461.8000, -80.892
1461.9000, -79.294
1462.0000, -80.736
1462.1000, -79.453
1462.2000, -82.729
1462.3000, -80.881
1462.4000, -78.945
1462.5000, -80.220
1462.6000, -80.664
1462.7000, -79.942
1462.8000, -83.077
1462.9000, -78.263
1463.0000, -80.953
1463.1000, -80.577
1463.2000, -82.751
1463.3000, -80.159
1463.4000, -85.224
1463.5000, -80.079
1463.6000, -81.149
1463.7000, -79.940
1463.8000, -80.822
1463.9000, -79.765
1464.0000, -82.242
1464.1000, -80.058
1464.2000, -80.313
1464.3000, -80.521
1464.4000, -80.914
1464.5000, -80.723
1464.6000, -80.217
1464.7000, -81.279
1464.8000, -81.421
1464.9000, -80.379
1465.0000, -82.263
1465.1000, -81.421
1465.2000, -81.064
1465.3000, -81.288
1465.4000, -79.301
1465.5000, -79.838
1465.6000, -83.432
1465.7000, -81.946
1465.8000, -81.726
1465.9000, -80.311
1466.0000, -79.579
1466.1000, -82.620
1466.2000, -80.269
1466.3000, -80.556
1466.4000, -81.275
1466.5000, -80.106
1466.6000, -80.418
1466.7000, -81.172
1466.8000, -80.805
1466.9000, -81.926
1467.0000, -81.639
1467.1000, -79.711
1467.2000, -81.196
1467.3000, -81.365
1467.4000, -82.378
1467.5000, -80.008
1467.6000, -78.269
1467.7000, -82.274
1467.8000, -85.677
1467.9000, -78.201
1468.0000, -84.433
1468.1000, -80.901
1468.2000, -80.447
1468.3000, -81.254
1468.4000, -78.786
1468.5000, -82.666
1468.6000, -84.148
1468.7000, -79.991
1468.8000, -79.333
1468.9000, -82.745
1469.0000, -78.237
1469.1000, -82.773
1469.2000, -83.090
1469.3000, -80.689
1469.4000, -79.604
1469.5000, -82.006
1469.6000, -81.458
1469.7000, -80.456
1469.8000, -80.423
1469.9000, -81.325
1470.0000, -79.970
1470.1000, -79.951
1470.2000, -82.072
1470.3000, -80.471
1470.4000, -80.487
1470.5000, -79.614
1470.6000, -83.512
1470.7000, -79.652
1470.8000, -84.102
1470.9000, -79.140
1471.0000, -80.564
1471.1000, -85.164
1471.2000, -80.220
1471.3000, -81.653
1471.4000, -82.936
1471.5000, -79.387
1471.6000, -80.963
1471.7000, -79.469
1471.8000, -82.332
1471.9000, -80.848
1472.0000, -84.796
1472.1000, -88.146
1472.2000, -78.804
1472.3000, -80.079
1472.4000, -77.515
1472.5000, -85.679
1472.6000, -79.543
1472.7000, -81.019
1472.8000, -79.100
1472.9000, -82.416
1473.0000, -82.660
1473.1000, -80.730
1473.2000, -81.494
1473.3000, -80.005
1473.4000, -80.859
1473.5000, -80.370
1473.6000, -78.949
1473.7000, -84.640
1473.8000, -81.071
1473.9000, -80.421
1474.0000, -80.659
1474.1000, -79.965
1474.2000, -80.829
1474.3000, -80.219
1474.4000, -81.661
1474.5000, -80.538
1474.6000, -78.958
1474.7000, -82.250
1474.8000, -80.299
1474.9000, -82.865
1475.0000, -80.313
1475.1000, -81.518
1475.2000, -80.752
1475.3000, -81.369
1475.4000, -80.256
1475.5000, -78.957
1475.6000, -83.017
1475.7000, -81.421
1475.8000, -77.420
1475.9000, -88.159
1476.0000,-210.000
1476.1000, -76.283
1476.2000, -81.655
1476.3000, -80.324
1476.4000, -82.920
1476.5000, -83.034
1476.6000, -79.789
1476.7000, -81.076
1476.8000, -79.387
1476.9000, -79.383
1477.0000, -83.171
1477.1000, -87.517
1477.2000, -80.433
1477.3000, -80.970
1477.4000, -80.909
1477.5000, -80.842
1477.6000, -80.262
1477.7000, -81.100
1477.8000, -80.267
1477.9000, -80.853
1478.0000, -79.973
1478.1000, -79.727
1478.2000, -78.976
1478.3000, -82.052
1478.4000, -85.534
1478.5000, -80.040
1478.6000, -79.699
1478.7000, -81.969
1478.8000, -81.954
1478.9000, -78.733
1479.0000, -83.714
1479.1000, -81.526
1479.2000, -81.023
1479.3000, -86.706
1479.4000, -79.800
1479.5000, -79.883
1479.6000, -80.569
1479.7000, -80.548
1479.8000, -81.095
1479.9000, -79.789
1480.0000, -80.975
1480.1000, -93.071
1480.2000, -79.922
1480.3000, -79.702
1480.4000, -83.254
1480.5000, -79.876
1480.6000, -84.531
1480.7000, -81.483
1480.8000, -81.643
1480.9000, -83.755
1481.0000, -79.558
1481.1000, -81.037
1481.2000, -81.066
1481.3000, -80.962
1481.4000, -80.351
1481.5000, -80.611
1481.6000, -79.756
1481.7000, -82.310
1481.8000, -80.307
1481.9000, -81.560
1482.0000, -81.833
1482.1000, -79.044
1482.2000, -81.389
1482.3000, -80.907
1482.4000, -80.911
1482.5000, -81.235
1482.6000, -80.364
1482.7000, -80.096
1482.8000, -81.638
1482.9000, -80.745
1483.0000, -84.526
1483.1000, -79.430
1483.2000, -80.436
1483.3000, -80.037
1483.4000, -82.239
1483.5000, -81.871
1483.6000, -79.972
1483.7000, -80.517
1483.8000, -81.626
1483.9000, -80.151
1484.0000, -80.934
1484.1000, -82.887
1484.2000, -79.929
1484.3000, -80.426
1484.4000, -79.805
1484.5000, -82.912
1484.6000, -80.887
1484.7000, -80.853
1484.8000, -80.094
1484.9000, -80.668
1485.0000, -81.789
1485.1000, -82.431
1485.2000, -80.671
1485.3000, -79.790
1485.4000, -83.062
1485.5000, -80.786
1485.6000, -81.411
1485.7000, -79.994
1485.8000, -82.378
1485.9000, -79.536
1486.0000, -80.502
1486.1000, -81.024
1486.2000, -81.841
1486.3000, -81.859
1486.4000, -79.297
1486.5000, -82.213
1486.6000, -79.592
1486.7000, -82.366
1486.8000, -81.990
1486.9000, -79.372
1487.0000, -83.501
1487.1000, -80.188
1487.2000, -81.470
1487.3000, -81.157
1487.4000, -79.600
1487.5000, -79.007
1487.6000, -81.197
1487.7000, -82.157
1487.8000, -80.371
1487.9000, -80.210
1488.0000, -80.429
1488.1000,-210.000
1488.2000, -79.966
1488.3000, -78.891
1488.4000, -83.699
1488.5000, -79.588
1488.6000, -84.559
1488.7000, -80.940
1488.8000, -79.946
1488.9000, -78.915
1489.0000, -82.822
1489.1000, -80.254
1489.2000, -80.989
1489.3000, -79.217
1489.4000, -81.189
1489.5000, -82.441
1489.6000, -83.005
1489.7000, -80.616
1489.8000, -78.376
1489.9000, -86.303
1490.0000, -79.785
1490.1000, -82.955
1490.2000, -80.476
1490.3000, -79.702
1490.4000, -83.371
1490.5000, -80.872
1490.6000, -81.325
1490.7000, -79.358
1490.8000, -79.334
1490.9000, -82.639
1491.0000, -79.421
1491.1000, -77.766
1491.2000, -86.315
1491.3000, -84.321
1491.4000, -83.106
1491.5000, -78.297
1491.6000, -87.916
1491.7000, -78.187
1491.8000, -81.833
1491.9000, -85.977
1492.0000, -78.465
1492.1000, -85.607
1492.2000, -80.427
1492.3000, -81.634
1492.4000, -81.128
1492.5000, -82.017
1492.6000, -82.350
1492.7000, -80.188
1492.8000, -79.973
1492.9000, -79.950
1493.0000, -89.525
1493.1000, -78.863
1493.2000, -86.115
1493.3000, -78.850
1493.4000, -80.940
1493.5000, -81.476
1493.6000, -78.535
1493.7000, -83.455
1493.8000, -80.800
1493.9000, -79.032
1494.0000, -81.427
1494.1000, -81.709
1494.2000, -81.746
1494.3000, -80.014
1494.4000, -81.774
1494.5000, -80.824
1494.6000, -82.885
1494.7000, -79.724
1494.8000, -81.833
1494.9000, -90.004
1495.0000, -79.419
1495.1000, -77.895
1495.2000, -87.431
1495.3000, -80.178
1495.4000, -83.236
1495.5000, -79.706
1495.6000, -83.334
1495.7000, -80.480
1495.8000, -82.399
1495.9000, -81.979
1496.0000, -79.148
1496.1000, -83.317
1496.2000, -80.906
1496.3000, -79.919
1496.4000, -81.009
1496.5000, -80.099
1496.6000, -80.162
1496.7000, -81.579
1496.8000, -81.386
1496.9000, -80.195
1497.0000, -80.252
1497.1000, -80.998
1497.2000, -80.729
1497.3000, -82.043
1497.4000, -79.418
1497.5000, -80.634
1497.6000, -80.970
1497.7000, -81.135
1497.8000, -80.871
1497.9000, -82.171
1498.0000, -81.738
1498.1000, -82.378
1498.2000, -78.649
1498.3000, -80.492
1498.4000, -83.439
1498.5000, -80.108
1498.6000, -79.994
1498.7000, -80.289
1498.8000, -81.203
1498.9000, -80.294
1499.0000, -82.672
1499.1000, -80.477
1499.2000, -80.890
1499.3000, -79.681
1499.4000, -80.484
1499.5000, -80.865
1499.6000, -80.361
1499.7000, -80.664
1499.8000, -81.555
1499.9000, -80.470
1500.0000, -81.975
1500.1000, -80.764
1500.2000, -82.878
1500.3000, -81.310
1500.4000, -80.319
1500.5000, -82.592
1500.6000, -77.860
1500.7000, -82.741
1500.8000, -83.196
1500.9000, -77.981
1501.0000, -82.972
1501.1000, -80.528
1501.2000,-210.000
1501.3000, -80.008
1501.4000, -79.668
1501.5000, -82.439
1501.6000, -80.337
1501.7000, -83.085
1501.8000, -80.515
1501.9000, -80.689
1502.0000, -79.083
1502.1000, -80.168
1502.2000, -80.731
1502.3000, -80.838
1502.4000, -81.179
1502.5000, -81.049
1502.6000, -78.341
1502.7000, -85.043
1502.8000, -79.597
1502.9000, -81.678
1503.0000, -83.622
1503.1000, -79.414
1503.2000, -87.665
1503.3000, -82.476
1503.4000, -78.860
1503.5000, -85.175
1503.6000, -78.182
1503.7000, -81.093
1503.8000, -80.403
1503.9000, -81.196
1504.0000, -79.714
1504.1000, -80.073
1504.2000, -83.397
1504.3000, -82.692
1504.4000, -79.881
1504.5000, -80.171
1504.6000, -81.217
1504.7000, -82.121
1504.8000, -80.276
1504.9000, -80.115
1505.0000, -80.286
1505.1000, -80.182
1505.2000, -81.711
1505.3000, -81.200
1505.4000, -82.698
1505.5000, -79.722
1505.6000, -84.470
1505.7000, -80.206
1505.8000, -81.012
1505.9000, -80.483
1506.0000, -80.662
1506.1000, -79.625
1506.2000, -84.550
1506.3000, -80.864
1506.4000, -80.964
1506.5000, -80.267
1506.6000, -81.863
1506.7000, -81.589
1506.8000, -80.137
1506.9000, -79.364
1507.0000, -81.688
1507.1000, -80.824
1507.2000, -80.200
1507.3000, -82.370
1507.4000, -81.023
1507.5000, -82.076
1507.6000, -80.686
1507.7000, -80.902
1507.8000, -80.427
1507.9000, -80.696
1508.0000, -83.735
1508.1000, -80.896
1508.2000, -79.918
1508.3000, -81.248
1508.4000, -81.195
1508.5000, -80.417
1508.6000, -80.504
1508.7000, -81.377
1508.8000, -79.611
1508.9000, -82.111
1509.0000, -83.999
1509.1000, -80.120
1509.2000, -80.518
1509.3000, -79.835
1509.4000, -80.998
1509.5000, -80.975
1509.6000, -81.420
1509.7000, -82.299
1509.8000, -79.988
1509.9000, -80.459
1510.0000, -84.508
1510.1000,-210.000
1510.2000, -77.099
1510.3000, -80.265
1510.4000, -81.540
1510.5000,-210.000
1510.6000, -78.427
1510.7000, -80.093
1510.8000, -80.970
1510.9000, -79.250
1511.0000, -82.666
1511.1000, -80.588
1511.2000, -80.883
1511.3000, -81.360
1511.4000, -78.234
1511.5000, -85.818
1511.6000, -83.357
1511.7000, -80.011
1511.8000, -80.117
1511.9000, -82.498
1512.0000, -81.075
1512.1000, -79.709
1512.2000, -84.365
1512.3000, -79.352
1512.4000, -81.787
1512.5000, -82.038
1512.6000, -79.819
1512.7000, -84.580
1512.8000, -79.483
1512.9000,-210.000
1513.0000, -78.558
1513.1000, -83.538
1513.2000, -80.963
1513.3000, -80.572
1513.4000, -79.821
1513.5000, -79.892
1513.6000, -80.754
1513.7000, -80.723
1513.8000, -80.906
1513.9000, -80.782
1514.0000, -82.221
1514.1000, -79.181
1514.2000, -82.031
1514.3000, -80.064
1514.4000, -84.281
1514.5000, -81.799
1514.6000, -80.476
1514.7000, -78.932
1514.8000, -81.366
1514.9000, -83.815
1515.0000, -84.661
1515.1000, -80.481
1515.2000, -80.197
1515.3000, -80.421
1515.4000, -80.132
1515.5000, -81.483
1515.6000, -81.133
1515.7000, -79.908
1515.8000, -81.185
1515.9000, -80.378
1516.0000, -80.637
1516.1000, -81.383
1516.2000, -82.191
1516.3000, -81.645
1516.4000, -79.478
1516.5000, -80.880
1516.6000, -82.246
1516.7000, -80.155
1516.8000, -80.577
1516.9000, -78.938
1517.0000, -83.900
1517.1000, -79.463
1517.2000, -84.927
1517.3000, -79.709
1517.4000, -81.596
1517.5000, -81.649
1517.6000, -79.798
1517.7000, -82.950
1517.8000, -80.066
1517.9000, -80.346
1518.0000, -80.940
1518.1000, -81.892
1518.2000, -81.585
1518.3000, -79.896
1518.4000, -80.783
1518.5000, -82.781
1518.6000, -80.941
1518.7000, -80.855
1518.8000, -80.029
1518.9000, -82.701
1519.0000, -82.314
1519.1000, -80.683
1519.2000, -81.797
1519.3000, -81.267
1519.4000, -84.097
1519.5000, -80.544
1519.6000, -80.053
1519.7000, -81.026
1519.8000, -81.830
1519.9000, -80.020
1520.0000, -81.570
1520.1000, -80.232
1520.2000, -80.395
1520.3000, -80.781
1520.4000, -80.623
1520.5000, -80.780
1520.6000, -80.418
1520.7000, -81.879
1520.8000, -79.899
1520.9000, -83.319
1521.0000, -80.253
1521.1000, -82.161
1521.2000, -81.337
1521.3000, -80.500
1521.4000, -80.355
1521.5000, -81.284
1521.6000, -81.313
1521.7000, -79.997
1521.8000, -79.267
1521.9000, -83.127
1522.0000, -80.353
1522.1000, -80.623
1522.2000, -80.829
1522.3000, -81.023
1522.4000, -80.019
1522.5000, -84.935
1522.6000, -80.166
1522.7000, -80.948
1522.8000, -82.750
1522.9000, -79.762
1523.0000, -79.797
1523.1000, -80.218
1523.2000, -80.447
1523.3000, -78.584
1523.4000, -84.247
1523.5000, -80.118
1523.6000, -80.685
1523.7000, -80.730
1523.8000, -80.511
1523.9000, -79.597
1524.0000, -80.898
1524.1000, -79.621
1524.2000, -82.797
1524.3000, -80.200
1524.4000, -79.798
1524.5000, -80.479
1524.6000, -81.192
1524.7000, -81.287
1524.8000, -79.211
1524.9000, -79.163
1525.0000, -83.242
1525.1000, -80.107
1525.2000, -82.218
1525.3000, -81.228
1525.4000, -81.066
1525.5000, -80.237
1525.6000, -78.296
1525.7000, -81.425
1525.8000, -82.783
1525.9000, -81.468
1526.0000, -81.358
1526.1000, -80.305
1526.2000, -79.440
1526.3000, -82.282
1526.4000, -83.533
1526.5000, -80.439
1526.6000, -80.788
1526.7000, -80.928
1526.8000, -79.426
1526.9000, -82.543
1527.0000, -80.389
1527.1000, -79.715
1527.2000, -78.795
1527.3000, -89.147
1527.4000, -86.272
1527.5000, -80.162
1527.6000, -82.428
1527.7000, -81.066
1527.8000, -80.920
1527.9000, -79.930
1528.0000, -81.801
1528.1000, -80.055
1528.2000, -81.388
1528.3000, -80.538
1528.4000, -81.494
1528.5000, -81.205
1528.6000, -79.712
1528.7000,-210.000
1528.8000, -77.867
1528.9000, -81.133
1529.0000, -78.852
1529.1000, -80.881
1529.2000, -80.175
1529.3000, -78.977
1529.4000, -82.145
1529.5000, -78.988
1529.6000, -80.514
1529.7000, -82.216
1529.8000, -79.372
1529.9000, -83.022
1530.0000, -85.657
1530.1000, -80.189
1530.2000, -81.203
1530.3000, -79.662
1530.4000, -79.824
1530.5000, -80.744
1530.6000, -83.136
1530.7000, -81.065
1530.8000, -81.129
1530.9000, -81.038
1531.0000, -78.856
1531.1000, -81.324
1531.2000, -91.091
1531.3000, -79.178
1531.4000, -79.643
1531.5000, -81.142
1531.6000, -80.425
1531.7000, -80.497
1531.8000, -81.020
1531.9000, -81.768
1532.0000, -79.187
1532.1000, -81.013
1532.2000, -81.134
1532.3000, -81.760
1532.4000, -80.511
1532.5000, -81.494
1532.6000, -79.680
1532.7000, -79.925
1532.8000, -82.026
1532.9000, -80.568
1533.0000, -80.827
1533.1000, -82.215
1533.2000, -80.191
1533.3000, -81.154
1533.4000, -79.628
1533.5000, -80.931
1533.6000, -79.324
1533.7000, -80.460
1533.8000, -81.984
1533.9000, -79.168
1534.0000, -84.445
1534.1000, -80.270
1534.2000, -81.239
1534.3000, -81.319
1534.4000, -81.972
1534.5000, -80.040
1534.6000, -82.143
1534.7000, -78.730
1534.8000, -79.363
1534.9000, -85.469
1535.0000, -78.662
1535.1000, -82.590
1535.2000, -84.797
1535.3000, -77.673
1535.4000, -80.860
1535.5000, -80.690
1535.6000, -86.623
1535.7000, -79.380
1535.8000, -85.224
1535.9000, -78.902
1536.0000, -82.617
1536.1000, -81.740
1536.2000, -80.166
1536.3000, -80.760
1536.4000, -81.472
1536.5000, -79.231
1536.6000, -79.782
1536.7000, -80.426
1536.8000, -83.486
1536.9000, -79.740
1537.0000, -83.408
1537.1000, -79.274
1537.2000, -80.588
1537.3000, -80.274
1537.4000, -84.245
1537.5000, -81.169
1537.6000, -80.398
1537.7000, -78.888
1537.8000, -83.242
1537.9000, -82.174
1538.0000, -80.467
1538.1000, -82.663
1538.2000, -79.021
1538.3000, -81.893
1538.4000, -80.664
1538.5000, -82.198
1538.6000, -81.295
1538.7000, -80.492
1538.8000, -79.624
1538.9000, -82.686
1539.0000, -80.720
1539.1000, -79.367
1539.2000, -82.049
1539.3000, -79.787
1539.4000, -81.056
1539.5000, -82.203
1539.6000, -79.903
1539.7000, -80.365
1539.8000, -81.762
1539.9000, -79.375
1540.0000, -82.109
1540.1000, -82.331
1540.2000, -79.396
1540.3000, -79.768
1540.4000, -79.690
1540.5000,-210.000
1540.6000, -75.868
1540.7000, -80.243
1540.8000, -80.926
1540.9000, -81.690
1541.0000, -78.829
1541.1000, -85.910
1541.2000, -78.865
1541.3000, -91.569
1541.4000, -78.569
1541.5000, -81.459
1541.6000, -80.851
1541.7000, -81.388
1541.8000, -80.494
1541.9000, -83.085
1542.0000, -79.308
1542.1000, -80.249
1542.2000, -80.564
1542.3000, -79.892
1542.4000, -80.541
1542.5000, -81.918
1542.6000, -80.141
1542.7000, -80.362
1542.8000, -80.338
1542.9000, -81.491
1543.0000, -80.648
1543.1000, -81.129
1543.2000, -80.123
1543.3000, -80.350
1543.4000, -79.884
1543.5000, -80.838
1543.6000, -81.089
1543.7000, -83.313
1543.8000, -88.362
1543.9000, -79.211
1544.0000, -81.810
1544.1000, -79.741
1544.2000, -81.353
1544.3000, -79.261
1544.4000, -81.060
1544.5000, -81.594
1544.6000, -81.201
1544.7000, -80.387
1544.8000, -82.924
1544.9000, -80.135
1545.0000, -80.294
1545.1000, -81.427
1545.2000, -80.156
1545.3000, -82.093
1545.4000, -81.158
1545.5000, -79.807
1545.6000, -79.493
1545.7000, -81.126
1545.8000, -78.964
1545.9000, -87.358
1546.0000, -80.009
1546.1000, -81.856
1546.2000, -81.104
1546.3000, -81.774
1546.4000, -80.341
1546.5000, -80.903
1546.6000, -79.800
1546.7000, -80.223
1546.8000, -81.319
1546.9000, -79.175
1547.0000, -80.466
1547.1000, -82.549
1547.2000, -79.742
1547.3000, -80.507
1547.4000, -79.799
1547.5000, -80.662
1547.6000, -80.257
1547.7000, -80.818
1547.8000, -80.622
1547.9000, -83.033
1548.0000, -79.067
1548.1000, -79.757
1548.2000, -80.578
1548.3000, -80.947
1548.4000, -79.044
1548.5000, -80.022
1548.6000, -81.191
1548.7000, -81.174
1548.8000, -80.532
1548.9000, -79.842
1549.0000, -79.404
1549.1000, -80.852
1549.2000, -80.236
1549.3000, -80.476
1549.4000, -81.927
1549.5000, -82.147
1549.6000, -80.048
1549.7000, -78.350
1549.8000, -81.729
1549.9000, -82.127
1550.0000, -80.459
1550.1000, -81.328
1550.2000, -82.164
1550.3000, -79.924
1550.4000, -79.448
1550.5000, -81.931
1550.6000, -80.609
1550.7000, -80.527
1550.8000, -81.525
1550.9000, -79.973
1551.0000, -80.392
1551.1000, -79.671
1551.2000, -79.874
1551.3000, -80.543
1551.4000, -79.321
1551.5000, -81.638
1551.6000, -82.278
1551.7000, -79.342
1551.8000, -80.734
1551.9000, -80.347
1552.0000, -80.506
1552.1000, -79.513
1552.2000, -79.879
1552.3000, -91.408
1552.4000, -80.193
1552.5000, -82.376
1552.6000, -80.400
1552.7000, -79.759
1552.8000, -81.927
1552.9000, -80.520
1553.0000, -81.659
1553.1000, -78.585
1553.2000, -81.775
1553.3000, -81.897
1553.4000, -78.881
1553.5000, -81.586
1553.6000, -80.965
1553.7000, -79.978
1553.8000, -80.106
1553.9000, -78.674
1554.0000, -81.155
1554.1000, -77.253
1554.2000,-210.000
1554.3000, -78.219
1554.4000, -84.239
1554.5000, -79.021
1554.6000, -81.266
1554.7000, -80.245
1554.8000, -79.582
1554.9000, -81.759
1555.0000, -79.530
1555.1000, -81.379
1555.2000, -80.664
1555.3000, -79.623
1555.4000, -80.409
1555.5000, -79.800
1555.6000, -79.195
1555.7000, -78.399
1555.8000, -79.360
1555.9000, -83.326
1556.0000, -80.590
1556.1000, -79.965
1556.2000, -80.947
1556.3000, -82.835
1556.4000, -80.874
1556.5000, -79.393
1556.6000, -80.526
1556.7000, -81.726
1556.8000, -81.065
1556.9000, -78.810
1557.0000,-210.000
1557.1000, -81.298
1557.2000, -78.889
1557.3000, -80.950
1557.4000, -79.911
1557.5000, -78.811
1557.6000, -91.649
1557.7000, -78.699
1557.8000, -85.788
1557.9000, -79.223
1558.0000, -83.410
1558.1000, -80.256
1558.2000, -80.190
1558.3000, -79.427
1558.4000, -80.803
1558.5000, -78.820
1558.6000, -82.610
1558.7000, -81.015
1558.8000, -79.141
1558.9000, -81.552
1559.0000, -79.403
1559.1000, -81.394
1559.2000, -80.196
1559.3000, -81.660
1559.4000, -80.027
1559.5000, -81.225
1559.6000, -79.715
1559.7000, -80.168
1559.8000, -81.637
1559.9000, -79.898
1560.0000, -80.093
1560.1000, -79.245
1560.2000, -80.114
1560.3000, -82.435
1560.4000, -80.106
1560.5000, -81.639
1560.6000, -81.193
1560.7000, -80.702
1560.8000, -81.011
1560.9000, -79.522
1561.0000, -80.013
1561.1000, -81.075
1561.2000, -79.800
1561.3000, -81.078
1561.4000, -78.735
1561.5000, -79.395
1561.6000, -83.196
1561.7000, -79.742
1561.8000, -78.833
1561.9000, -83.142
1562.0000, -78.515
1562.1000, -81.534
1562.2000, -81.907
1562.3000, -78.861
1562.4000, -81.416
1562.5000, -80.422
1562.6000, -80.754
1562.7000, -80.870
1562.8000, -79.946
1562.9000, -81.237
1563.0000, -79.378
1563.1000, -80.788
1563.2000, -80.609
1563.3000, -79.157
1563.4000, -81.574
1563.5000, -81.625
1563.6000, -79.647
1563.7000, -81.134
1563.8000, -79.145
1563.9000, -80.609
1564.0000, -79.345
1564.1000, -80.685
1564.2000, -79.741
1564.3000, -81.215
1564.4000, -81.494
1564.5000, -80.207
1564.6000, -79.543
1564.7000, -80.839
1564.8000, -80.066
1564.9000, -79.630
1565.0000, -80.062
1565.1000, -79.003
1565.2000, -81.322
1565.3000, -81.222
1565.4000, -80.165
1565.5000, -80.660
1565.6000, -79.279
1565.7000, -79.815
1565.8000, -80.252
1565.9000, -81.938
1566.0000, -79.355
1566.1000, -80.286
1566.2000, -81.555
1566.3000, -80.522
1566.4000, -80.120
1566.5000, -80.848
1566.6000, -79.173
1566.7000, -80.029
1566.8000, -99.133
1566.9000, -78.533
1567.0000, -82.033
1567.1000, -78.091
1567.2000, -80.049
1567.3000, -80.144
1567.4000, -80.348
1567.5000, -82.133
1567.6000, -79.486
1567.7000, -83.430
1567.8000, -80.358
1567.9000, -80.799
1568.0000, -81.658
1568.1000, -79.359
1568.2000, -79.869
1568.3000, -80.115
1568.4000, -81.023
1568.5000, -79.423
1568.6000, -81.283
1568.7000, -81.433
1568.8000, -80.053
1568.9000, -79.511
1569.0000, -80.590
1569.1000, -80.860
1569.2000, -80.219
1569.3000, -80.805
1569.4000, -81.276
1569.5000, -80.076
1569.6000, -79.265
1569.7000, -81.513
1569.8000, -78.523
1569.9000, -81.236
1570.0000, -80.501
1570.1000, -79.925
1570.2000, -79.438
1570.3000, -80.979
1570.4000, -79.991
1570.5000, -80.355
1570.6000, -80.299
1570.7000, -79.852
1570.8000, -80.377
1570.9000, -78.483
1571.0000, -81.338
1571.1000, -80.032
1571.2000, -80.388
1571.3000, -79.484
1571.4000, -80.533
1571.5000, -81.398
1571.6000, -79.272
1571.7000, -79.685
1571.8000, -80.865
1571.9000, -79.240
1572.0000, -79.454
1572.1000, -80.342
1572.2000, -78.044
1572.3000, -81.669
1572.4000, -80.067
1572.5000, -80.398
1572.6000, -79.665
1572.7000, -80.273
1572.8000, -79.316
1572.9000, -79.773
1573.0000, -78.858
1573.1000, -93.560
1573.2000, -78.671
1573.3000, -80.756
1573.4000, -79.398
1573.5000, -79.784
1573.6000, -78.603
1573.7000, -80.631
1573.8000, -80.598
1573.9000, -80.033
1574.0000, -79.331
1574.1000, -81.725
1574.2000, -80.823
1574.3000, -77.611
1574.4000, -89.157
1574.5000, -79.903
1574.6000, -81.051
1574.7000, -79.837
1574.8000, -79.286
1574.9000, -79.969
1575.0000, -81.729
1575.1000, -79.136
1575.2000, -80.403
1575.3000, -80.756
1575.4000, -79.889
1575.5000, -79.843
1575.6000, -79.854
1575.7000, -81.169
1575.8000, -79.592
1575.9000, -79.698
1576.0000, -79.586
1576.1000, -80.566
1576.2000, -80.670
1576.3000, -79.778
1576.4000, -79.936
1576.5000, -78.832
1576.6000, -85.072
1576.7000, -78.638
1576.8000, -78.288
1576.9000, -81.388
1577.0000, -79.936
1577.1000, -80.568
1577.2000, -81.118
1577.3000, -80.064
1577.4000, -79.414
1577.5000, -82.811
1577.6000, -79.353
1577.7000, -79.276
1577.8000, -79.403
1577.9000, -78.272
1578.0000, -80.739
1578.1000, -83.083
1578.2000, -80.087
1578.3000, -79.723
1578.4000, -78.387
1578.5000, -82.086
1578.6000, -79.730
1578.7000, -86.261
1578.8000, -81.672
1578.9000, -78.201
1579.0000, -82.470
1579.1000, -79.376
1579.2000, -80.270
1579.3000, -81.422
1579.4000, -79.721
1579.5000, -78.485
1579.6000, -91.683
1579.7000, -79.846
1579.8000, -78.874
1579.9000, -79.249
1580.0000, -78.498
1580.1000, -79.622
1580.2000, -80.855
1580.3000, -78.702
1580.4000, -80.909
1580.5000, -79.306
1580.6000, -82.928
1580.7000, -79.358
1580.8000, -79.531
1580.9000, -81.896
1581.0000, -78.583
1581.1000, -79.435
1581.2000, -78.988
1581.3000, -81.726
1581.4000, -80.130
1581.5000, -79.333
1581.6000, -79.886
1581.7000, -79.506
1581.8000, -82.117
1581.9000, -78.277
1582.0000, -80.665
1582.1000, -80.601
1582.2000, -78.835
1582.3000, -80.954
1582.4000, -80.270
1582.5000, -79.761
1582.6000, -80.833
1582.7000, -79.657
1582.8000, -81.362
1582.9000, -79.521
1583.0000, -81.284
1583.1000, -78.603
1583.2000, -81.857
1583.3000, -79.244
1583.4000, -79.684
1583.5000, -81.536
1583.6000, -80.532
1583.7000, -80.695
1583.8000, -79.014
1583.9000, -79.113
1584.0000, -81.252
1584.1000, -80.818
1584.2000, -79.326
1584.3000, -80.279
1584.4000, -78.785
1584.5000, -80.640
1584.6000, -80.001
1584.7000, -79.410
1584.8000, -80.536
1584.9000, -79.592
1585.0000, -80.271
1585.1000, -79.615
1585.2000, -78.898
1585.3000, -80.493
1585.4000, -80.553
1585.5000, -80.145
1585.6000, -81.407
1585.7000, -80.029
1585.8000, -79.675
1585.9000, -78.609
1586.0000, -81.492
1586.1000, -79.514
1586.2000, -79.171
1586.3000, -81.169
1586.4000, -79.927
1586.5000, -80.102
1586.6000, -78.882
1586.7000, -82.404
1586.8000, -78.064
1586.9000, -80.667
1587.0000, -79.745
1587.1000, -82.119
1587.2000, -79.171
1587.3000, -80.220
1587.4000, -81.656
1587.5000, -78.697
1587.6000, -79.906
1587.7000, -82.820
1587.8000, -79.864
1587.9000, -79.358
1588.0000, -80.103
1588.1000, -80.337
1588.2000, -79.951
1588.3000, -77.623
1588.4000, -82.252
1588.5000, -79.797
1588.6000, -78.602
1588.7000, -79.061
1588.8000, -80.097
1588.9000, -79.940
1589.0000, -79.729
1589.1000, -79.188
1589.2000, -79.456
1589.3000, -80.043
1589.4000, -79.678
1589.5000, -79.724
1589.6000, -79.256
1589.7000, -79.154
1589.8000, -80.863
1589.9000, -79.918
1590.0000, -80.253
1590.1000, -79.858
1590.2000, -79.829
1590.3000, -79.871
1590.4000, -79.606
1590.5000, -80.637
1590.6000, -80.173
1590.7000, -80.316
1590.8000, -79.845
1590.9000, -80.509
1591.0000, -77.989
1591.1000, -80.927
1591.2000, -79.319
1591.3000, -79.942
1591.4000, -78.363
1591.5000, -79.917
1591.6000, -79.431
1591.7000, -80.189
1591.8000, -81.787
1591.9000, -78.548
1592.0000, -79.359
1592.1000, -79.814
1592.2000, -80.893
1592.3000, -78.114
1592.4000, -79.520
1592.5000, -79.070
1592.6000, -79.122
1592.7000, -81.157
1592.8000, -80.164
1592.9000, -78.281
1593.0000, -79.546
1593.1000, -79.678
1593.2000, -79.414
1593.3000, -80.760
1593.4000, -79.877
1593.5000, -79.044
1593.6000, -81.320
1593.7000, -78.663
1593.8000, -79.168
1593.9000, -77.930
1594.0000, -85.066
1594.1000, -78.806
1594.2000, -78.451
1594.3000, -79.439
1594.4000, -80.438
1594.5000, -79.184
1594.6000, -80.131
1594.7000, -78.893
1594.8000, -81.018
1594.9000, -78.807
1595.0000, -80.325
1595.1000, -79.599
1595.2000, -80.859
1595.3000, -79.429
1595.4000, -79.937
1595.5000, -78.438
1595.6000, -81.292
1595.7000, -79.752
1595.8000, -79.854
1595.9000, -79.850
1596.0000, -80.589
1596.1000, -79.636
1596.2000, -78.726
1596.3000, -78.660
1596.4000, -86.214
1596.5000, -77.760
1596.6000, -79.605
1596.7000, -79.335
1596.8000, -79.426
1596.9000, -80.283
1597.0000, -80.109
1597.1000, -79.575
1597.2000, -82.462
1597.3000, -78.432
1597.4000, -81.310
1597.5000, -78.734
1597.6000, -78.982
1597.7000, -78.538
1597.8000, -80.536
1597.9000, -79.681
1598.0000, -79.089
1598.1000, -79.351
1598.2000, -79.198
1598.3000, -79.165
1598.4000, -79.289
1598.5000, -78.542
1598.6000, -79.236
1598.7000, -79.492
1598.8000, -78.975
1598.9000, -81.983
1599.0000, -77.651
1599.1000, -79.380
1599.2000, -77.846
1599.3000, -81.789
1599.4000, -79.619
1599.5000, -79.191
1599.6000, -79.115
1599.7000, -80.814
1599.8000, -79.702
1599.9000, -79.700
1600.0000, -78.999
1600.1000, -79.021
1600.2000, -80.351
1600.3000, -79.517
1600.4000, -79.424
1600.5000, -78.875
1600.6000, -79.938
1600.7000, -79.821
1600.8000, -79.817
1600.9000, -79.013
1601.0000, -78.520
1601.1000, -80.100
1601.2000, -80.192
1601.3000, -79.605
1601.4000, -79.719
1601.5000, -78.652
1601.6000, -79.337
1601.7000, -79.784
1601.8000, -80.229
1601.9000, -78.440
1602.0000, -80.092
1602.1000, -78.659
1602.2000, -80.580
1602.3000, -78.335
1602.4000, -80.012
1602.5000, -79.575
1602.6000, -78.511
1602.7000, -80.436
1602.8000, -80.558
1602.9000, -79.362
1603.0000, -80.431
1603.1000, -78.586
1603.2000, -78.626
1603.3000, -80.323
1603.4000, -80.404
1603.5000, -78.342
1603.6000, -80.388
1603.7000, -79.232
1603.8000, -79.688
1603.9000, -80.390
1604.0000, -79.169
1604.1000, -80.218
1604.2000, -79.309
1604.3000, -79.590
1604.4000, -79.614
1604.5000, -79.624
1604.6000, -79.452
1604.7000, -79.979
1604.8000, -78.935
1604.9000, -78.735
1605.0000, -79.513
1605.1000, -79.188
1605.2000, -78.236
1605.3000, -81.445
1605.4000, -77.657
1605.5000, -80.966
1605.6000, -77.847
1605.7000, -82.536
1605.8000, -77.354
1605.9000, -79.365
1606.0000, -80.413
1606.1000, -80.907
1606.2000, -79.036
1606.3000, -78.167
1606.4000, -80.432
1606.5000, -79.172
1606.6000, -79.680
1606.7000, -79.947
1606.8000, -79.012
1606.9000, -78.472
1607.0000, -79.795
1607.1000, -78.826
1607.2000, -80.222
1607.3000, -80.797
1607.4000, -78.362
1607.5000, -79.996
1607.6000, -80.456
1607.7000, -79.565
1607.8000, -77.944
1607.9000, -79.356
1608.0000, -79.672
1608.1000, -79.343
1608.2000, -79.116
1608.3000, -80.146
1608.4000, -79.669
1608.5000, -78.517
1608.6000, -79.455
1608.7000, -79.925
1608.8000, -79.316
1608.9000, -77.777
1609.0000, -79.196
1609.1000, -79.187
1609.2000, -77.687
1609.3000, -84.776
1609.4000, -78.750
1609.5000, -79.711
1609.6000, -77.505
1609.7000, -80.255
1609.8000, -79.130
1609.9000, -78.221
1610.0000, -77.866
1610.1000, -81.551
1610.2000, -78.033
1610.3000, -79.662
1610.4000, -77.301
1610.5000, -83.592
1610.6000, -78.056
1610.7000, -83.024
1610.8000, -77.257
1610.9000, -78.220
1611.0000, -79.550
1611.1000, -79.080
1611.2000, -78.677
1611.3000, -79.780
1611.4000, -78.888
1611.5000, -78.153
1611.6000, -81.408
1611.7000, -78.279
1611.8000, -78.079
1611.9000, -79.001
1612.0000, -80.171
1612.1000, -78.456
1612.2000, -78.440
1612.3000, -78.433
1612.4000, -79.199
1612.5000, -80.148
1612.6000, -79.943
1612.7000, -78.659
1612.8000, -77.882
1612.9000, -78.448
1613.0000, -78.939
1613.1000, -80.123
1613.2000, -79.804
1613.3000, -77.146
1613.4000, -79.913
1613.5000, -80.020
1613.6000, -79.484
1613.7000, -78.484
1613.8000, -77.955
1613.9000, -78.970
1614.0000, -79.105
1614.1000, -79.845
1614.2000, -77.388
1614.3000, -79.552
1614.4000, -79.497
1614.5000, -78.459
1614.6000, -80.183
1614.7000, -78.133
1614.8000, -78.172
1614.9000, -79.247
1615.0000, -78.319
1615.1000, -79.742
1615.2000, -79.276
1615.3000, -79.612
1615.4000, -77.960
1615.5000, -78.530
1615.6000, -76.872
1615.7000, -79.163
1615.8000, -79.607
1615.9000, -79.180
1616.0000, -77.642
1616.1000, -79.234
1616.2000, -79.699
1616.3000, -78.799
1616.4000, -78.507
1616.5000, -77.023
1616.6000, -79.461
1616.7000, -77.952
1616.8000, -78.004
1616.9000, -78.016
1617.0000, -78.526
1617.1000, -78.308
1617.2000, -77.654
1617.3000, -77.180
1617.4000, -77.669
1617.5000, -78.932
1617.6000, -77.623
1617.7000, -77.354
1617.8000, -79.458
1617.9000, -77.443
1618.0000, -78.568
1618.1000, -77.379
1618.2000, -77.678
1618.3000, -78.176
1618.4000, -77.192
1618.5000, -78.956
1618.6000, -77.868
1618.7000, -77.173
1618.8000, -77.623
1618.9000, -78.386
1619.0000, -76.656
1619.1000, -78.526
1619.2000, -77.147
1619.3000, -77.351
1619.4000, -76.387
1619.5000, -77.723
1619.6000, -77.704
1619.7000, -77.518
1619.8000, -77.129
1619.9000, -76.984
1620.0000, -78.523
1620.1000, -77.282
1620.2000, -78.944
1620.3000, -79.273
1620.4000, -79.349
1620.5000, -78.348
1620.6000, -78.726
1620.7000, -77.942
1620.8000, -78.971
1620.9000, -77.516
1621.0000, -79.147
1621.1000, -79.417
1621.2000, -78.875
1621.3000, -78.483
1621.4000, -77.873
1621.5000, -78.524
1621.6000, -78.784
1621.7000, -78.151
1621.8000, -77.155
1621.9000, -78.294
1622.0000, -79.194
1622.1000, -78.122
1622.2000, -79.614
1622.3000, -77.413
1622.4000, -77.627
1622.5000, -78.696
1622.6000, -77.599
1622.7000, -78.734
1622.8000, -78.509
1622.9000, -77.726
1623.0000, -78.256
1623.1000, -78.084
1623.2000, -79.027
1623.3000, -79.567
1623.4000, -78.320
1623.5000, -78.934
1623.6000, -78.073
1623.7000, -78.567
1623.8000, -79.853
1623.9000, -78.390
1624.0000, -77.267
1624.1000, -78.523
1624.2000, -79.120
1624.3000, -77.545
1624.4000, -79.940
1624.5000, -78.643
1624.6000, -78.314
1624.7000, -77.425
1624.8000, -77.903
1624.9000, -79.231
1625.0000, -76.370
1625.1000, -79.656
1625.2000, -78.247
1625.3000, -78.771
1625.4000, -78.195
1625.5000, -78.234
1625.6000, -78.502
1625.7000, -78.298
1625.8000, -77.280
1625.9000, -78.121
1626.0000, -78.175
1626.1000, -77.310
1626.2000, -78.050
1626.3000, -77.583
1626.4000, -78.892
1626.5000, -77.415
1626.6000, -76.814
1626.7000, -77.385
1626.8000, -79.972
1626.9000, -78.767
1627.0000, -77.640
1627.1000, -78.246
1627.2000, -77.979
1627.3000, -77.457
1627.4000, -77.067
1627.5000, -78.204
1627.6000, -77.709
1627.7000, -78.289
1627.8000, -76.169
1627.9000, -81.409
1628.0000, -78.316
1628.1000, -78.653
1628.2000, -77.137
1628.3000, -78.047
1628.4000, -78.328
1628.5000, -77.997
1628.6000, -77.664
1628.7000, -78.871
1628.8000, -77.968
1628.9000, -78.574
1629.0000, -77.713
1629.1000, -76.766
1629.2000, -78.448
1629.3000, -77.397
1629.4000, -78.409
1629.5000, -77.902
1629.6000, -78.431
1629.7000, -77.343
1629.8000, -78.090
1629.9000, -78.148
1630.0000, -76.931
1630.1000, -76.371
1630.2000, -79.331
1630.3000, -78.087
1630.4000, -75.867
1630.5000, -79.670
1630.6000, -77.644
1630.7000, -77.693
1630.8000, -77.234
1630.9000, -77.946
1631.0000, -78.012
1631.1000, -78.248
1631.2000, -75.901
1631.3000, -79.115
1631.4000, -76.610
1631.5000, -76.365
1631.6000, -77.759
1631.7000, -77.874
1631.8000, -77.260
1631.9000, -78.436
1632.0000, -77.102
1632.1000, -77.701
1632.2000, -78.058
1632.3000, -77.421
1632.4000, -77.124
1632.5000, -78.035
1632.6000, -77.524
1632.7000, -76.785
1632.8000, -77.785
1632.9000, -78.263
1633.0000, -77.444
1633.1000, -76.493
1633.2000, -78.031
1633.3000, -77.432
1633.4000, -78.454
1633.5000, -77.547
1633.6000, -77.221
1633.7000, -76.527
1633.8000, -76.904
1633.9000, -75.650
1634.0000, -77.162
1634.1000, -84.352
1634.2000, -76.549
1634.3000, -77.102
1634.4000, -76.957
1634.5000, -76.976
1634.6000, -77.258
1634.7000, -77.828
1634.8000, -77.374
1634.9000, -76.627
1635.0000, -76.823
1635.1000, -79.745
1635.2000, -77.229
1635.3000, -76.805
1635.4000, -77.204
1635.5000, -75.814
1635.6000, -75.798
1635.7000, -77.634
1635.8000, -75.941
1635.9000, -80.832
1636.0000, -75.857
1636.1000, -76.883
1636.2000, -77.733
1636.3000, -74.889
1636.4000, -78.393
1636.5000, -76.045
1636.6000, -80.147
1636.7000, -76.773
1636.8000, -76.711
1636.9000, -76.192
1637.0000, -77.086
1637.1000, -77.057
1637.2000, -75.081
1637.3000, -77.931
1637.4000, -76.787
1637.5000, -75.559
1637.6000, -80.149
1637.7000, -75.005
1637.8000, -78.952
1637.9000, -74.818
1638.0000, -81.140
1638.1000, -73.209
1638.2000,-210.000
1638.3000, -74.492
1638.4000, -75.800
1638.5000, -74.833
1638.6000, -77.535
1638.7000, -78.526
1638.8000, -76.291
1638.9000, -73.378
1639.0000, -80.481
1639.1000, -82.725
1639.2000, -73.551
1639.3000, -73.297
1639.4000, -80.418
1639.5000, -77.757
1639.6000, -77.352
1639.7000, -74.825
1639.8000, -74.347
1639.9000, -76.528
1640.0000, -77.322
1640.1000, -74.323
1640.2000, -77.212
1640.3000, -73.670
1640.4000, -77.164
1640.5000, -75.412
1640.6000, -75.281
1640.7000, -76.840
1640.8000, -75.084
1640.9000, -76.703
1641.0000, -74.997
1641.1000, -78.752
1641.2000, -76.528
1641.3000, -76.282
1641.4000, -74.699
1641.5000, -78.250
1641.6000, -75.948
1641.7000, -76.349
1641.8000, -75.501
1641.9000, -75.878
1642.0000, -75.344
1642.1000, -75.305
1642.2000, -78.282
1642.3000, -74.713
1642.4000, -75.442
1642.5000, -75.169
1642.6000, -75.896
1642.7000, -75.230
1642.8000, -75.195
1642.9000, -75.064
1643.0000, -74.954
1643.1000, -75.512
1643.2000, -74.463
1643.3000, -75.482
1643.4000, -76.107
1643.5000, -75.915
1643.6000, -74.476
1643.7000, -75.839
1643.8000, -76.429
1643.9000, -73.521
1644.0000, -75.419
1644.1000, -74.996
1644.2000, -74.951
1644.3000, -74.352
1644.4000, -76.365
1644.5000, -74.637
1644.6000, -74.215
1644.7000, -75.408
1644.8000, -74.992
1644.9000, -73.986
1645.0000, -74.064
1645.1000, -74.442
1645.2000, -74.279
1645.3000, -74.831
1645.4000, -73.354
1645.5000, -74.467
1645.6000, -74.067
1645.7000, -75.015
1645.8000, -74.806
1645.9000, -73.840
1646.0000, -74.754
1646.1000, -75.049
1646.2000, -73.853
1646.3000, -73.974
1646.4000, -74.968
1646.5000, -74.585
1646.6000, -72.006
1646.7000, -73.323
1646.8000, -74.418
1646.9000, -73.779
1647.0000, -74.166
1647.1000, -75.577
1647.2000, -73.698
1647.3000, -73.178
1647.4000, -74.113
1647.5000, -73.786
1647.6000, -74.509
1647.7000, -73.825
1647.8000, -72.959
1647.9000, -74.032
1648.0000, -74.020
1648.1000, -73.801
1648.2000, -73.047
1648.3000, -73.144
1648.4000, -73.527
1648.5000, -74.120
1648.6000, -73.610
1648.7000, -74.397
1648.8000, -73.321
1648.9000, -73.059
1649.0000, -73.935
1649.1000, -73.320
1649.2000, -73.353
1649.3000, -71.797
1649.4000, -75.549
1649.5000, -73.933
1649.6000, -72.667
1649.7000, -73.160
1649.8000, -73.538
1649.9000, -74.182
1650.0000, -71.760
1650.1000, -73.209
1650.2000, -72.657
1650.3000, -72.221
1650.4000, -73.791
1650.5000, -73.170
1650.6000, -72.325
1650.7000, -72.705
1650.8000, -73.506
1650.9000, -71.444
1651.0000, -73.282
1651.1000, -73.582
1651.2000, -71.628
1651.3000, -73.139
1651.4000, -73.721
1651.5000, -73.109
1651.6000, -73.602
1651.7000, -72.232
1651.8000, -71.716
1651.9000, -73.632
1652.0000, -71.487
1652.1000, -72.257
1652.2000, -74.035
1652.3000, -72.470
1652.4000, -73.260
1652.5000, -71.733
1652.6000, -72.958
1652.7000, -73.710
1652.8000, -71.951
1652.9000, -73.067
1653.0000, -71.616
1653.1000, -71.873
1653.2000, -71.536
1653.3000, -73.102
1653.4000, -71.430
1653.5000, -72.043
1653.6000, -71.465
1653.7000, -71.118
1653.8000, -72.057
1653.9000, -76.050
1654.0000, -71.447
1654.1000, -72.412
1654.2000, -71.361
1654.3000, -73.492
1654.4000, -71.298
1654.5000, -72.505
1654.6000, -72.716
1654.7000, -71.517
1654.8000, -70.843
1654.9000, -74.425
1655.0000, -71.874
1655.1000, -72.207
1655.2000, -69.527
1655.3000, -73.915
1655.4000, -71.970
1655.5000, -72.768
1655.6000, -71.155
1655.7000, -69.474
1655.8000, -72.102
1655.9000, -71.882
1656.0000, -70.081
1656.1000, -72.671
1656.2000, -70.849
1656.3000, -71.233
1656.4000, -71.000
1656.5000, -71.203
1656.6000, -76.640
1656.7000, -72.664
1656.8000, -71.356
1656.9000, -70.638
1657.0000, -74.670
1657.1000, -70.243
1657.2000, -71.467
1657.3000, -70.132
1657.4000, -73.908
1657.5000, -71.330
1657.6000, -69.974
1657.7000, -75.608
1657.8000, -71.424
1657.9000, -71.090
1658.0000, -71.661
1658.1000, -69.156
1658.2000, -72.079
1658.3000, -71.307
1658.4000, -69.827
1658.5000, -71.935
1658.6000, -72.089
1658.7000, -70.471
1658.8000, -70.279
1658.9000, -70.609
1659.0000, -70.646
1659.1000, -70.316
1659.2000, -71.173
1659.3000, -70.729
1659.4000, -72.287
1659.5000, -71.077
1659.6000, -70.335
1659.7000, -71.862
1659.8000, -72.364
1659.9000, -70.064
1660.0000, -71.796
1660.1000, -70.164
1660.2000, -70.906
1660.3000, -70.900
1660.4000, -72.576
1660.5000, -69.914
1660.6000, -69.095
1660.7000, -71.825
1660.8000, -70.984
1660.9000, -70.399
1661.0000, -70.474
1661.1000, -70.963
1661.2000, -70.363
1661.3000, -70.948
1661.4000, -69.536
1661.5000, -69.928
1661.6000, -70.978
1661.7000, -69.806
1661.8000, -68.994
1661.9000, -70.294
1662.0000, -72.293
1662.1000, -70.328
1662.2000, -70.325
1662.3000, -69.180
1662.4000, -68.800
1662.5000, -74.714
1662.6000, -70.131
1662.7000, -71.518
1662.8000, -68.751
1662.9000, -68.980
1663.0000, -69.657
1663.1000, -72.346
1663.2000, -69.058
1663.3000, -69.898
1663.4000, -69.318
1663.5000, -70.048
1663.6000, -68.556
1663.7000, -70.861
1663.8000, -68.964
1663.9000, -69.661
1664.0000, -72.109
1664.1000, -69.582
1664.2000, -69.288
1664.3000, -67.622
1664.4000, -71.762
1664.5000, -67.849
1664.6000, -70.447
1664.7000, -68.370
1664.8000, -71.436
1664.9000, -68.988
1665.0000, -69.541
1665.1000, -69.976
1665.2000, -68.357
1665.3000, -69.075
1665.4000, -69.603
1665.5000, -68.980
1665.6000, -68.770
1665.7000, -70.860
1665.8000, -68.240
1665.9000, -69.257
1666.0000, -69.315
1666.1000, -68.283
1666.2000, -70.662
1666.3000, -69.124
1666.4000, -67.812
1666.5000, -68.142
1666.6000, -69.424
1666.7000, -66.636
1666.8000, -76.404
1666.9000, -68.138
1667.0000, -67.768
1667.1000, -69.930
1667.2000, -68.866
1667.3000, -73.277
1667.4000, -69.509
1667.5000, -68.986
1667.6000, -67.968
1667.7000, -69.382
1667.8000, -67.359
1667.9000, -68.140
1668.0000, -69.674
1668.1000, -68.375
1668.2000, -69.102
1668.3000, -68.472
1668.4000, -69.281
1668.5000, -67.771
1668.6000, -69.304
1668.7000, -67.663
1668.8000, -69.665
1668.9000, -67.860
1669.0000, -68.307
1669.1000, -69.371
1669.2000, -66.852
1669.3000, -68.713
1669.4000, -69.789
1669.5000, -67.901
1669.6000, -67.380
1669.7000, -67.398
1669.8000, -67.514
1669.9000, -66.705
1670.0000, -67.918
1670.1000, -68.483
1670.2000, -68.879
1670.3000, -67.279
1670.4000, -67.639
1670.5000, -68.539
1670.6000, -67.158
1670.7000, -67.639
1670.8000, -67.423
1670.9000, -67.080
1671.0000, -68.489
1671.1000, -68.699
1671.2000, -66.889
1671.3000, -68.125
1671.4000, -68.127
1671.5000, -67.802
1671.6000, -66.936
1671.7000, -68.680
1671.8000, -67.676
1671.9000, -67.761
1672.0000, -67.532
1672.1000, -71.438
1672.2000, -65.738
1672.3000, -67.930
1672.4000, -68.015
1672.5000, -66.250
1672.6000, -68.335
1672.7000, -66.362
1672.8000, -66.338
1672.9000, -68.248
1673.0000, -68.229
1673.1000, -67.741
1673.2000, -66.636
1673.3000, -68.790
1673.4000, -65.640
1673.5000, -68.060
1673.6000, -67.738
1673.7000, -67.305
1673.8000, -68.089
1673.9000, -67.858
1674.0000, -67.625
1674.1000, -67.632
1674.2000, -67.857
1674.3000, -66.474
1674.4000, -66.697
1674.5000, -66.789
1674.6000, -68.414
1674.7000, -66.833
1674.8000, -65.375
1674.9000, -66.681
1675.0000, -67.510
1675.1000, -66.858
1675.2000, -66.168
1675.3000, -66.564
1675.4000, -64.704
1675.5000, -67.699
1675.6000, -68.934
1675.7000, -66.359
1675.8000, -68.312
1675.9000, -64.999
1676.0000, -67.286
1676.1000, -68.088
1676.2000, -67.280
1676.3000, -66.307
1676.4000, -64.235
1676.5000, -67.174
1676.6000, -70.733
1676.7000, -64.029
1676.8000, -71.979
1676.9000, -65.127
1677.0000, -66.975
1677.1000, -65.926
1677.2000, -65.795
1677.3000, -66.044
1677.4000, -67.614
1677.5000, -66.419
1677.6000, -65.686
1677.7000, -67.143
1677.8000, -67.259
1677.9000, -63.760
1678.0000, -69.540
1678.1000, -65.324
1678.2000, -68.945
1678.3000, -65.323
1678.4000, -67.191
1678.5000, -65.590
1678.6000, -63.955
1678.7000, -67.633
1678.8000, -66.297
1678.9000, -63.028
1679.0000, -68.054
1679.1000, -65.180
1679.2000, -64.373
1679.3000, -72.439
1679.4000, -67.094
1679.5000, -64.626
1679.6000, -63.474
1679.7000, -68.038
1679.8000, -65.852
1679.9000, -67.146
1680.0000, -65.014
1680.1000, -64.764
1680.2000, -65.714
1680.3000, -65.404
1680.4000, -64.171
1680.5000, -65.571
1680.6000, -66.210
1680.7000, -64.917
1680.8000, -65.589
1680.9000, -65.287
1681.0000, -65.379
1681.1000, -65.448
1681.2000, -65.032
1681.3000, -64.662
1681.4000, -66.005
1681.5000, -63.845
1681.6000, -64.782
1681.7000, -65.922
1681.8000, -64.306
1681.9000, -64.740
1682.0000, -66.350
1682.1000, -64.769
1682.2000, -64.561
1682.3000, -65.622
1682.4000, -66.743
1682.5000, -64.567
1682.6000, -64.686
1682.7000, -65.348
1682.8000, -64.767
1682.9000, -64.337
1683.0000, -65.147
1683.1000, -64.357
1683.2000, -65.430
1683.3000, -64.547
1683.4000, -64.113
1683.5000, -64.134
1683.6000, -63.505
1683.7000, -65.965
1683.8000, -65.104
1683.9000, -63.999
1684.0000, -64.937
1684.1000, -65.264
1684.2000, -64.560
1684.3000, -64.126
1684.4000, -65.149
1684.5000, -62.140
1684.6000, -63.934
1684.7000, -65.547
1684.8000, -64.454
1684.9000, -64.904
1685.0000, -65.006
1685.1000, -63.951
1685.2000, -64.427
1685.3000, -63.409
1685.4000, -63.707
1685.5000, -64.676
1685.6000, -62.592
1685.7000, -64.785
1685.8000, -64.709
1685.9000, -62.545
1686.0000, -63.551
1686.1000, -65.443
1686.2000, -63.276
1686.3000, -63.916
1686.4000, -63.509
1686.5000, -65.968
1686.6000, -64.662
1686.7000, -63.614
1686.8000, -64.042
1686.9000, -63.194
1687.0000, -63.657
1687.1000, -64.212
1687.2000, -62.807
1687.3000, -63.266
1687.4000, -62.944
1687.5000, -64.280
1687.6000, -63.876
1687.7000, -62.935
1687.8000, -63.129
1687.9000, -64.179
1688.0000, -62.154
1688.1000, -64.843
1688.2000, -64.800
1688.3000, -62.437
1688.4000, -64.361
1688.5000, -63.328
1688.6000, -62.990
1688.7000, -62.940
1688.8000, -63.197
1688.9000, -63.640
1689.0000, -62.324
1689.1000, -63.443
1689.2000, -62.665
1689.3000, -64.616
1689.4000, -64.245
1689.5000, -63.774
1689.6000, -63.327
1689.7000, -63.852
1689.8000, -64.542
1689.9000, -62.538
1690.0000, -62.817
1690.1000, -63.319
1690.2000, -63.018
1690.3000, -62.459
1690.4000, -61.787
1690.5000, -62.275
1690.6000, -64.644
1690.7000, -61.470
1690.8000, -62.552
1690.9000, -60.971
1691.0000, -68.834
1691.1000, -60.921
1691.2000, -63.347
1691.3000, -63.384
1691.4000, -62.950
1691.5000, -61.652
1691.6000, -63.234
1691.7000, -63.750
1691.8000, -62.366
1691.9000, -62.164
1692.0000, -61.858
1692.1000, -62.760
1692.2000, -62.337
1692.3000, -62.953
1692.4000, -61.072
1692.5000, -62.321
1692.6000, -61.580
1692.7000, -62.504
1692.8000, -62.569
1692.9000, -61.641
1693.0000, -61.410
1693.1000, -63.057
1693.2000, -61.842
1693.3000, -62.115
1693.4000, -61.306
1693.5000, -62.667
1693.6000, -61.966
1693.7000, -62.051
1693.8000, -61.750
1693.9000, -61.721
1694.0000, -61.389
1694.1000, -62.774
1694.2000, -62.110
1694.3000, -61.842
1694.4000, -60.762
1694.5000, -60.648
1694.6000, -62.080
1694.7000, -60.734
1694.8000, -61.960
1694.9000, -61.715
1695.0000, -61.354
1695.1000, -62.310
1695.2000, -60.881
1695.3000, -62.687
1695.4000, -60.445
1695.5000, -63.639
1695.6000, -59.583
1695.7000, -59.879
1695.8000, -62.334
1695.9000, -60.886
1696.0000, -60.438
1696.1000, -61.329
1696.2000, -61.041
1696.3000, -60.924
1696.4000, -61.460
1696.5000, -59.881
1696.6000, -61.325
1696.7000, -59.261
1696.8000, -65.298
1696.9000, -60.938
1697.0000, -60.187
1697.1000, -60.375
1697.2000, -60.761
1697.3000, -60.983
1697.4000, -60.342
1697.5000, -60.420
1697.6000, -60.825
1697.7000, -61.522
1697.8000, -60.116
1697.9000, -60.156
1698.0000, -60.309
1698.1000, -60.671
1698.2000, -60.715
1698.3000, -60.224
1698.4000, -60.489
1698.5000, -60.169
1698.6000, -60.057
1698.7000, -59.617
1698.8000, -60.938
1698.9000, -60.025
1699.0000, -60.146
1699.1000, -58.809
1699.2000, -61.313
1699.3000, -59.827
1699.4000, -60.102
1699.5000, -59.436
1699.6000, -61.044
1699.7000, -58.111
1699.8000, -61.884
1699.9000, -59.393
1700.0000, -62.256
