70BCSV 	
// AQ6370B OPTICAL SPECTRUM ANALYZER //                 
25
"CTRWL",1300.000000
"SPAN", 800.000000
"START WL", 900.000000
"STOP WL",1700.000000
"WLFREQ", 0
"REFL",-17.2
"LSCL",10.0
"RESLN",0.500
"AVG",   1
"SMPLAUTO",      1
"SMPL",       8001
"SMPLINTVL",0.1000
"HIGH1"
"MEAS"
"LSUNT",0
"NMSKH","OFF"
"RESCOR",0
"RESPARM", 9740
"FREQPARM", 9740






"[TRACE DATA]"
 900.0000, -65.846
 900.1000, -65.236
 900.2000, -66.206
 900.3000, -67.998
 900.4000, -65.593
 900.5000, -64.899
 900.6000, -66.817
 900.7000, -69.499
 900.8000, -65.051
 900.9000, -66.551
 901.0000, -67.352
 901.1000, -65.629
 901.2000, -66.078
 901.3000, -66.333
 901.4000, -67.607
 901.5000, -66.909
 901.6000, -66.873
 901.7000, -65.975
 901.8000, -66.305
 901.9000, -66.334
 902.0000, -66.389
 902.1000, -67.472
 902.2000, -65.170
 902.3000, -69.030
 902.4000, -66.667
 902.5000, -66.465
 902.6000, -66.906
 902.7000, -68.152
 902.8000, -66.515
 902.9000, -65.012
 903.0000, -66.053
 903.1000, -68.554
 903.2000, -65.547
 903.3000, -68.296
 903.4000, -67.949
 903.5000, -67.027
 903.6000, -66.124
 903.7000, -66.807
 903.8000, -66.128
 903.9000, -67.837
 904.0000, -67.375
 904.1000, -66.328
 904.2000, -67.280
 904.3000, -67.410
 904.4000, -66.427
 904.5000, -66.553
 904.6000, -68.513
 904.7000, -68.031
 904.8000, -66.741
 904.9000, -66.729
 905.0000, -66.634
 905.1000, -67.918
 905.2000, -67.760
 905.3000, -67.032
 905.4000, -66.605
 905.5000, -67.028
 905.6000, -67.215
 905.7000, -67.066
 905.8000, -68.696
 905.9000, -66.529
 906.0000, -67.700
 906.1000, -67.808
 906.2000, -67.515
 906.3000, -66.350
 906.4000, -67.157
 906.5000, -67.414
 906.6000, -67.722
 906.7000, -67.443
 906.8000, -67.858
 906.9000, -67.410
 907.0000, -67.808
 907.1000, -67.091
 907.2000, -67.174
 907.3000, -68.270
 907.4000, -67.178
 907.5000, -67.923
 907.6000, -66.934
 907.7000, -68.037
 907.8000, -69.109
 907.9000, -66.685
 908.0000, -69.547
 908.1000, -67.755
 908.2000, -66.657
 908.3000, -67.830
 908.4000, -68.750
 908.5000, -66.990
 908.6000, -68.477
 908.7000, -68.393
 908.8000, -68.798
 908.9000, -67.730
 909.0000, -67.672
 909.1000, -67.545
 909.2000, -67.710
 909.3000, -68.024
 909.4000, -69.820
 909.5000, -68.387
 909.6000, -67.358
 909.7000, -67.376
 909.8000, -68.851
 909.9000, -67.725
 910.0000, -69.727
 910.1000, -67.984
 910.2000, -69.076
 910.3000, -67.812
 910.4000, -67.616
 910.5000, -68.167
 910.6000, -68.741
 910.7000, -68.457
 910.8000, -69.301
 910.9000, -68.291
 911.0000, -67.894
 911.1000, -69.072
 911.2000, -69.442
 911.3000, -69.090
 911.4000, -68.624
 911.5000, -68.345
 911.6000, -68.610
 911.7000, -69.297
 911.8000, -68.644
 911.9000, -67.917
 912.0000, -68.287
 912.1000, -70.257
 912.2000, -68.945
 912.3000, -68.454
 912.4000, -69.615
 912.5000, -68.748
 912.6000, -68.376
 912.7000, -69.343
 912.8000, -68.410
 912.9000, -68.378
 913.0000, -69.547
 913.1000, -69.554
 913.2000, -67.664
 913.3000, -69.857
 913.4000, -69.856
 913.5000, -68.590
 913.6000, -68.478
 913.7000, -70.307
 913.8000, -69.497
 913.9000, -68.867
 914.0000, -68.976
 914.1000, -69.173
 914.2000, -69.271
 914.3000, -69.539
 914.4000, -68.626
 914.5000, -69.470
 914.6000, -68.669
 914.7000, -69.272
 914.8000, -70.139
 914.9000, -69.038
 915.0000, -68.815
 915.1000, -69.080
 915.2000, -70.165
 915.3000, -68.572
 915.4000, -68.878
 915.5000, -69.295
 915.6000, -69.150
 915.7000, -69.620
 915.8000, -69.509
 915.9000, -69.616
 916.0000, -69.522
 916.1000, -69.363
 916.2000, -70.251
 916.3000, -69.483
 916.4000, -69.781
 916.5000, -70.345
 916.6000, -69.563
 916.7000, -69.207
 916.8000, -69.107
 916.9000, -69.880
 917.0000, -70.190
 917.1000, -69.681
 917.2000, -70.438
 917.3000, -69.390
 917.4000, -69.044
 917.5000, -69.632
 917.6000, -69.239
 917.7000, -71.437
 917.8000, -70.875
 917.9000, -70.218
 918.0000, -69.193
 918.1000, -69.277
 918.2000, -69.402
 918.3000, -68.825
 918.4000, -69.252
 918.5000, -72.396
 918.6000, -69.841
 918.7000, -69.537
 918.8000, -68.784
 918.9000, -71.477
 919.0000, -71.744
 919.1000, -68.420
 919.2000, -69.779
 919.3000, -71.204
 919.4000, -71.141
 919.5000, -68.240
 919.6000, -73.880
 919.7000, -69.031
 919.8000, -68.990
 919.9000, -70.430
 920.0000, -70.444
 920.1000, -71.386
 920.2000, -70.500
 920.3000, -70.487
 920.4000, -70.897
 920.5000, -71.350
 920.6000, -70.572
 920.7000, -71.200
 920.8000, -68.844
 920.9000, -71.220
 921.0000, -72.196
 921.1000, -72.494
 921.2000, -69.714
 921.3000, -69.866
 921.4000, -71.427
 921.5000, -71.279
 921.6000, -70.640
 921.7000, -69.797
 921.8000, -70.764
 921.9000, -69.536
 922.0000, -69.419
 922.1000, -69.912
 922.2000, -73.263
 922.3000, -69.254
 922.4000, -72.393
 922.5000, -71.317
 922.6000, -70.184
 922.7000, -70.151
 922.8000, -70.339
 922.9000, -70.466
 923.0000, -70.891
 923.1000, -71.985
 923.2000, -70.474
 923.3000, -70.554
 923.4000, -71.255
 923.5000, -71.901
 923.6000, -70.958
 923.7000, -71.128
 923.8000, -70.269
 923.9000, -70.198
 924.0000, -72.483
 924.1000, -69.841
 924.2000, -70.617
 924.3000, -70.686
 924.4000, -69.294
 924.5000, -71.802
 924.6000, -79.977
 924.7000, -70.846
 924.8000, -71.817
 924.9000, -69.030
 925.0000, -71.113
 925.1000, -71.786
 925.2000, -71.271
 925.3000, -69.571
 925.4000, -72.511
 925.5000, -71.458
 925.6000, -71.361
 925.7000, -71.273
 925.8000, -71.556
 925.9000, -70.669
 926.0000, -71.971
 926.1000, -71.424
 926.2000, -70.962
 926.3000, -71.214
 926.4000, -71.463
 926.5000, -70.682
 926.6000, -70.586
 926.7000, -71.363
 926.8000, -71.467
 926.9000, -71.941
 927.0000, -71.126
 927.1000, -71.521
 927.2000, -70.468
 927.3000, -71.719
 927.4000, -71.069
 927.5000, -71.662
 927.6000, -71.251
 927.7000, -70.816
 927.8000, -70.576
 927.9000, -70.208
 928.0000, -72.511
 928.1000, -72.512
 928.2000, -70.360
 928.3000, -72.672
 928.4000, -71.621
 928.5000, -71.920
 928.6000, -71.003
 928.7000, -71.120
 928.8000, -70.760
 928.9000, -72.674
 929.0000, -71.737
 929.1000, -71.792
 929.2000, -71.339
 929.3000, -72.266
 929.4000, -72.506
 929.5000, -72.511
 929.6000, -71.012
 929.7000, -71.557
 929.8000, -72.506
 929.9000, -71.687
 930.0000, -72.147
 930.1000, -71.673
 930.2000, -72.187
 930.3000, -73.198
 930.4000, -70.866
 930.5000, -72.198
 930.6000, -72.370
 930.7000, -71.948
 930.8000, -71.924
 930.9000, -72.295
 931.0000, -71.296
 931.1000, -72.304
 931.2000, -72.003
 931.3000, -71.678
 931.4000, -72.059
 931.5000, -72.136
 931.6000, -72.161
 931.7000, -71.117
 931.8000, -71.938
 931.9000, -71.776
 932.0000, -72.264
 932.1000, -71.402
 932.2000, -71.568
 932.3000, -72.250
 932.4000, -71.844
 932.5000, -72.159
 932.6000, -72.024
 932.7000, -72.406
 932.8000, -72.227
 932.9000, -70.815
 933.0000, -74.226
 933.1000, -72.725
 933.2000, -71.727
 933.3000, -72.499
 933.4000, -70.955
 933.5000, -71.493
 933.6000, -72.741
 933.7000, -73.079
 933.8000, -71.202
 933.9000, -73.557
 934.0000, -74.114
 934.1000, -71.548
 934.2000, -73.016
 934.3000, -71.228
 934.4000, -70.749
 934.5000, -71.829
 934.6000, -73.325
 934.7000, -72.943
 934.8000, -73.737
 934.9000, -72.423
 935.0000, -71.386
 935.1000, -72.541
 935.2000, -71.352
 935.3000, -72.725
 935.4000, -72.059
 935.5000, -72.973
 935.6000, -70.752
 935.7000, -71.762
 935.8000, -73.249
 935.9000, -73.148
 936.0000, -72.693
 936.1000, -73.710
 936.2000, -71.806
 936.3000, -71.944
 936.4000, -72.568
 936.5000, -72.904
 936.6000, -73.126
 936.7000, -71.996
 936.8000, -73.456
 936.9000, -72.232
 937.0000, -71.972
 937.1000, -72.341
 937.2000, -72.459
 937.3000, -71.534
 937.4000, -71.465
 937.5000, -72.640
 937.6000, -74.301
 937.7000, -71.984
 937.8000, -71.843
 937.9000, -72.093
 938.0000, -72.637
 938.1000, -71.278
 938.2000, -72.676
 938.3000, -70.778
 938.4000, -71.384
 938.5000, -71.015
 938.6000, -71.463
 938.7000, -70.372
 938.8000, -70.936
 938.9000, -71.625
 939.0000, -72.271
 939.1000, -72.736
 939.2000, -71.535
 939.3000, -71.947
 939.4000, -71.832
 939.5000, -72.464
 939.6000, -72.186
 939.7000, -72.225
 939.8000, -72.052
 939.9000, -72.861
 940.0000, -70.964
 940.1000, -73.351
 940.2000, -72.412
 940.3000, -72.669
 940.4000, -71.654
 940.5000, -72.955
 940.6000, -73.072
 940.7000, -73.090
 940.8000, -72.133
 940.9000, -72.341
 941.0000, -73.932
 941.1000, -74.347
 941.2000, -72.883
 941.3000, -71.899
 941.4000, -72.677
 941.5000, -72.161
 941.6000, -73.005
 941.7000, -73.250
 941.8000, -72.844
 941.9000, -71.649
 942.0000, -73.555
 942.1000, -73.947
 942.2000, -74.581
 942.3000, -71.597
 942.4000, -72.546
 942.5000, -72.189
 942.6000, -72.538
 942.7000, -74.084
 942.8000, -73.710
 942.9000, -72.376
 943.0000, -73.263
 943.1000, -72.857
 943.2000, -73.013
 943.3000, -73.088
 943.4000, -74.846
 943.5000, -72.738
 943.6000, -72.924
 943.7000, -73.280
 943.8000, -72.264
 943.9000, -73.360
 944.0000, -73.298
 944.1000, -72.970
 944.2000, -73.657
 944.3000, -73.012
 944.4000, -72.667
 944.5000, -72.760
 944.6000, -73.570
 944.7000, -72.039
 944.8000, -72.555
 944.9000, -72.399
 945.0000, -73.138
 945.1000, -72.611
 945.2000, -71.863
 945.3000, -71.747
 945.4000, -72.197
 945.5000, -71.856
 945.6000, -71.601
 945.7000, -70.488
 945.8000, -70.874
 945.9000, -70.130
 946.0000, -70.440
 946.1000, -70.262
 946.2000, -70.400
 946.3000, -70.301
 946.4000, -70.023
 946.5000, -70.605
 946.6000, -70.674
 946.7000, -72.028
 946.8000, -71.313
 946.9000, -71.792
 947.0000, -72.116
 947.1000, -72.231
 947.2000, -72.277
 947.3000, -73.801
 947.4000, -73.444
 947.5000, -72.482
 947.6000, -72.428
 947.7000, -72.766
 947.8000, -74.085
 947.9000, -73.983
 948.0000, -73.496
 948.1000, -73.191
 948.2000, -73.374
 948.3000, -72.861
 948.4000, -73.382
 948.5000, -73.400
 948.6000, -72.531
 948.7000, -73.729
 948.8000, -73.233
 948.9000, -74.484
 949.0000, -73.645
 949.1000, -72.463
 949.2000, -73.683
 949.3000, -73.642
 949.4000, -73.526
 949.5000, -73.399
 949.6000, -73.931
 949.7000, -72.683
 949.8000, -74.217
 949.9000, -73.987
 950.0000, -74.367
 950.1000, -73.263
 950.2000, -73.244
 950.3000, -73.385
 950.4000, -73.237
 950.5000, -72.934
 950.6000, -73.471
 950.7000, -73.458
 950.8000, -72.806
 950.9000, -72.921
 951.0000, -72.157
 951.1000, -78.157
 951.2000, -73.752
 951.3000, -72.581
 951.4000, -73.333
 951.5000, -73.080
 951.6000, -73.331
 951.7000, -73.442
 951.8000, -77.383
 951.9000, -72.808
 952.0000, -72.311
 952.1000, -74.057
 952.2000, -74.203
 952.3000, -75.161
 952.4000, -73.654
 952.5000, -74.096
 952.6000, -73.919
 952.7000, -73.062
 952.8000, -72.359
 952.9000, -76.134
 953.0000, -73.684
 953.1000, -73.620
 953.2000, -74.068
 953.3000, -73.879
 953.4000, -73.790
 953.5000, -73.302
 953.6000, -73.592
 953.7000, -73.553
 953.8000, -73.965
 953.9000, -75.713
 954.0000, -73.519
 954.1000, -72.780
 954.2000, -74.872
 954.3000, -74.123
 954.4000, -73.575
 954.5000, -74.893
 954.6000, -73.885
 954.7000, -73.565
 954.8000, -74.051
 954.9000, -74.445
 955.0000, -72.173
 955.1000, -73.688
 955.2000, -74.218
 955.3000, -74.875
 955.4000, -75.351
 955.5000, -74.490
 955.6000, -74.468
 955.7000, -74.264
 955.8000, -73.579
 955.9000, -74.581
 956.0000, -73.499
 956.1000, -74.523
 956.2000, -73.401
 956.3000, -74.184
 956.4000, -74.874
 956.5000, -74.139
 956.6000, -74.550
 956.7000, -76.855
 956.8000, -73.145
 956.9000, -74.573
 957.0000, -73.598
 957.1000, -74.139
 957.2000, -73.477
 957.3000, -73.429
 957.4000, -74.703
 957.5000, -73.899
 957.6000, -73.615
 957.7000, -74.006
 957.8000, -75.253
 957.9000, -74.574
 958.0000, -73.984
 958.1000, -74.049
 958.2000, -73.885
 958.3000, -74.305
 958.4000, -73.797
 958.5000, -74.489
 958.6000, -74.198
 958.7000, -74.528
 958.8000, -74.885
 958.9000, -73.122
 959.0000, -74.108
 959.1000, -74.239
 959.2000, -73.868
 959.3000, -74.181
 959.4000, -74.487
 959.5000, -73.507
 959.6000, -73.346
 959.7000, -75.496
 959.8000, -74.648
 959.9000, -74.472
 960.0000, -73.912
 960.1000, -74.525
 960.2000, -73.813
 960.3000, -73.918
 960.4000, -74.082
 960.5000, -74.476
 960.6000, -73.713
 960.7000, -74.470
 960.8000, -74.829
 960.9000, -73.470
 961.0000, -74.378
 961.1000, -73.982
 961.2000, -74.332
 961.3000, -73.681
 961.4000, -74.627
 961.5000, -74.598
 961.6000, -73.808
 961.7000, -73.604
 961.8000, -74.515
 961.9000, -74.633
 962.0000, -74.056
 962.1000, -74.525
 962.2000, -74.145
 962.3000, -74.294
 962.4000, -74.266
 962.5000, -73.955
 962.6000, -73.922
 962.7000, -74.762
 962.8000, -74.017
 962.9000, -74.626
 963.0000, -74.243
 963.1000, -74.416
 963.2000, -74.817
 963.3000, -74.559
 963.4000, -74.118
 963.5000, -76.399
 963.6000, -74.161
 963.7000, -73.765
 963.8000, -74.702
 963.9000, -74.776
 964.0000, -73.994
 964.1000, -74.005
 964.2000, -74.043
 964.3000, -74.608
 964.4000, -75.133
 964.5000, -74.166
 964.6000, -75.263
 964.7000, -74.202
 964.8000, -74.867
 964.9000, -74.551
 965.0000, -75.028
 965.1000, -73.901
 965.2000, -74.507
 965.3000, -73.910
 965.4000, -75.403
 965.5000, -74.198
 965.6000, -74.053
 965.7000, -74.525
 965.8000, -74.749
 965.9000, -73.989
 966.0000, -75.145
 966.1000, -74.291
 966.2000, -74.584
 966.3000, -74.572
 966.4000, -74.641
 966.5000, -73.735
 966.6000, -72.751
 966.7000, -73.862
 966.8000, -76.109
 966.9000, -78.057
 967.0000, -73.755
 967.1000, -74.170
 967.2000, -72.806
 967.3000, -74.635
 967.4000, -75.853
 967.5000, -74.930
 967.6000, -74.093
 967.7000, -74.818
 967.8000, -72.272
 967.9000, -75.187
 968.0000, -75.190
 968.1000, -74.522
 968.2000, -74.979
 968.3000, -73.962
 968.4000, -76.011
 968.5000, -74.525
 968.6000, -74.989
 968.7000, -75.276
 968.8000, -73.958
 968.9000, -74.439
 969.0000, -74.191
 969.1000, -75.096
 969.2000, -74.232
 969.3000, -75.308
 969.4000, -74.483
 969.5000, -74.741
 969.6000, -75.054
 969.7000, -74.304
 969.8000, -74.214
 969.9000, -74.602
 970.0000, -74.051
 970.1000, -75.169
 970.2000, -74.465
 970.3000, -74.561
 970.4000, -75.091
 970.5000, -74.594
 970.6000, -74.567
 970.7000, -75.063
 970.8000, -74.554
 970.9000, -74.545
 971.0000, -74.107
 971.1000, -74.716
 971.2000, -73.861
 971.3000, -73.906
 971.4000, -74.799
 971.5000, -73.357
 971.6000, -75.143
 971.7000, -75.372
 971.8000, -73.658
 971.9000, -76.356
 972.0000, -74.289
 972.1000, -74.638
 972.2000, -74.053
 972.3000, -74.472
 972.4000, -74.968
 972.5000, -73.142
 972.6000, -77.307
 972.7000, -76.207
 972.8000, -75.248
 972.9000, -74.668
 973.0000, -75.558
 973.1000, -73.758
 973.2000, -74.880
 973.3000, -73.223
 973.4000, -75.256
 973.5000, -76.316
 973.6000, -74.493
 973.7000, -74.027
 973.8000, -74.156
 973.9000, -75.219
 974.0000, -74.421
 974.1000, -75.097
 974.2000, -74.709
 974.3000, -75.447
 974.4000, -74.859
 974.5000, -74.541
 974.6000, -74.979
 974.7000, -74.373
 974.8000, -74.861
 974.9000, -74.429
 975.0000, -75.373
 975.1000, -75.075
 975.2000, -74.329
 975.3000, -75.536
 975.4000, -73.194
 975.5000, -74.824
 975.6000, -74.591
 975.7000, -74.997
 975.8000, -75.470
 975.9000, -73.691
 976.0000, -74.559
 976.1000, -75.006
 976.2000, -74.809
 976.3000, -74.477
 976.4000, -75.041
 976.5000, -74.517
 976.6000, -75.103
 976.7000, -74.182
 976.8000, -73.602
 976.9000, -73.473
 977.0000, -76.099
 977.1000, -75.738
 977.2000, -74.890
 977.3000, -74.553
 977.4000, -74.547
 977.5000, -73.812
 977.6000, -74.022
 977.7000, -76.837
 977.8000, -74.646
 977.9000, -74.550
 978.0000, -73.211
 978.1000, -74.889
 978.2000, -76.543
 978.3000, -74.837
 978.4000, -73.627
 978.5000, -74.836
 978.6000, -75.581
 978.7000, -75.553
 978.8000, -74.151
 978.9000, -74.651
 979.0000, -74.529
 979.1000, -75.198
 979.2000, -74.153
 979.3000, -75.517
 979.4000, -74.020
 979.5000, -74.677
 979.6000, -73.956
 979.7000, -75.119
 979.8000, -75.648
 979.9000, -75.249
 980.0000, -75.236
 980.1000, -74.293
 980.2000, -74.844
 980.3000, -74.668
 980.4000, -74.413
 980.5000, -75.911
 980.6000, -74.452
 980.7000, -74.430
 980.8000, -74.394
 980.9000, -75.239
 981.0000, -75.021
 981.1000, -75.094
 981.2000, -74.851
 981.3000, -74.130
 981.4000, -74.386
 981.5000, -74.862
 981.6000, -74.904
 981.7000, -73.628
 981.8000, -74.732
 981.9000, -75.322
 982.0000, -76.411
 982.1000, -74.915
 982.2000, -73.492
 982.3000, -77.062
 982.4000, -75.276
 982.5000, -75.087
 982.6000, -73.940
 982.7000, -75.453
 982.8000, -75.298
 982.9000, -75.033
 983.0000, -74.238
 983.1000, -73.507
 983.2000, -73.928
 983.3000, -75.908
 983.4000, -74.723
 983.5000, -73.981
 983.6000, -75.742
 983.7000, -75.271
 983.8000, -75.058
 983.9000, -74.956
 984.0000, -76.863
 984.1000, -74.810
 984.2000, -73.657
 984.3000, -73.572
 984.4000, -77.295
 984.5000, -74.632
 984.6000, -73.856
 984.7000, -74.135
 984.8000, -74.450
 984.9000, -73.524
 985.0000, -75.294
 985.1000, -74.782
 985.2000, -75.012
 985.3000, -76.130
 985.4000, -73.525
 985.5000, -74.243
 985.6000, -74.998
 985.7000, -75.961
 985.8000, -74.255
 985.9000, -73.460
 986.0000, -74.761
 986.1000, -78.916
 986.2000, -75.616
 986.3000, -73.509
 986.4000, -77.470
 986.5000, -74.278
 986.6000, -75.794
 986.7000, -76.142
 986.8000, -75.118
 986.9000, -74.462
 987.0000, -74.474
 987.1000, -74.976
 987.2000, -74.502
 987.3000, -77.783
 987.4000, -75.108
 987.5000, -73.514
 987.6000, -74.914
 987.7000, -76.096
 987.8000, -74.840
 987.9000, -75.350
 988.0000, -74.219
 988.1000, -75.749
 988.2000, -74.213
 988.3000, -74.289
 988.4000, -75.694
 988.5000, -74.133
 988.6000, -75.303
 988.7000, -75.620
 988.8000, -76.353
 988.9000, -75.382
 989.0000, -73.992
 989.1000, -77.503
 989.2000, -73.900
 989.3000, -75.432
 989.4000, -74.720
 989.5000, -76.016
 989.6000, -73.962
 989.7000, -75.161
 989.8000, -74.489
 989.9000, -74.974
 990.0000, -75.226
 990.1000, -75.562
 990.2000, -75.107
 990.3000, -76.547
 990.4000, -75.384
 990.5000, -74.709
 990.6000, -73.967
 990.7000, -75.809
 990.8000, -75.557
 990.9000, -76.816
 991.0000, -75.154
 991.1000, -74.780
 991.2000, -75.559
 991.3000, -74.519
 991.4000, -74.521
 991.5000, -75.110
 991.6000, -77.217
 991.7000, -75.797
 991.8000, -74.807
 991.9000, -74.833
 992.0000, -75.020
 992.1000, -74.302
 992.2000, -75.459
 992.3000, -76.260
 992.4000, -74.899
 992.5000, -74.958
 992.6000, -75.314
 992.7000, -75.375
 992.8000, -75.035
 992.9000, -73.510
 993.0000, -76.374
 993.1000, -77.411
 993.2000, -74.180
 993.3000, -75.851
 993.4000, -75.156
 993.5000, -75.628
 993.6000, -74.281
 993.7000, -75.619
 993.8000, -75.012
 993.9000, -75.841
 994.0000, -75.490
 994.1000, -75.028
 994.2000, -75.497
 994.3000, -74.438
 994.4000, -78.573
 994.5000, -75.252
 994.6000, -74.848
 994.7000, -76.373
 994.8000, -75.346
 994.9000, -74.308
 995.0000, -76.722
 995.1000, -74.977
 995.2000, -75.119
 995.3000, -74.724
 995.4000, -75.173
 995.5000, -77.319
 995.6000, -74.870
 995.7000, -74.981
 995.8000, -76.279
 995.9000, -75.297
 996.0000, -75.317
 996.1000, -75.764
 996.2000, -74.701
 996.3000, -74.505
 996.4000, -75.931
 996.5000, -75.061
 996.6000, -75.285
 996.7000, -75.041
 996.8000, -75.109
 996.9000, -76.129
 997.0000, -74.428
 997.1000, -75.676
 997.2000, -75.158
 997.3000, -76.585
 997.4000, -75.870
 997.5000, -75.139
 997.6000, -74.998
 997.7000, -74.492
 997.8000, -75.119
 997.9000, -76.213
 998.0000, -75.327
 998.1000, -76.142
 998.2000, -75.209
 998.3000, -75.545
 998.4000, -75.296
 998.5000, -76.512
 998.6000, -76.130
 998.7000, -74.899
 998.8000, -74.312
 998.9000, -74.743
 999.0000, -77.626
 999.1000, -75.088
 999.2000, -75.897
 999.3000, -75.694
 999.4000, -75.579
 999.5000, -76.220
 999.6000, -76.226
 999.7000, -74.528
 999.8000, -74.783
 999.9000, -75.714
1000.0000, -76.706
1000.1000, -74.878
1000.2000, -77.253
1000.3000, -74.873
1000.4000, -75.076
1000.5000, -75.498
1000.6000, -75.477
1000.7000, -75.225
1000.8000, -74.655
1000.9000, -75.735
1001.0000, -76.847
1001.1000, -75.689
1001.2000, -76.413
1001.3000, -75.192
1001.4000, -76.317
1001.5000, -76.080
1001.6000, -75.973
1001.7000, -75.641
1001.8000, -76.459
1001.9000, -74.959
1002.0000, -75.981
1002.1000, -75.885
1002.2000, -75.589
1002.3000, -74.888
1002.4000, -75.964
1002.5000, -75.449
1002.6000, -75.434
1002.7000, -75.616
1002.8000, -74.815
1002.9000, -75.895
1003.0000, -75.621
1003.1000, -75.482
1003.2000, -76.323
1003.3000, -76.025
1003.4000, -76.155
1003.5000, -75.275
1003.6000, -75.502
1003.7000, -76.398
1003.8000, -75.576
1003.9000, -76.063
1004.0000, -74.872
1004.1000, -75.248
1004.2000, -74.375
1004.3000, -75.965
1004.4000, -77.165
1004.5000, -74.415
1004.6000, -74.744
1004.7000, -77.872
1004.8000, -74.780
1004.9000, -75.630
1005.0000, -74.377
1005.1000, -77.113
1005.2000, -74.669
1005.3000, -77.604
1005.4000, -78.925
1005.5000, -75.239
1005.6000, -74.906
1005.7000, -76.173
1005.8000, -75.295
1005.9000, -75.777
1006.0000, -74.113
1006.1000, -76.017
1006.2000, -75.459
1006.3000, -76.438
1006.4000, -79.468
1006.5000, -75.790
1006.6000, -75.258
1006.7000, -77.921
1006.8000, -75.073
1006.9000, -75.513
1007.0000, -74.306
1007.1000, -76.821
1007.2000, -79.378
1007.3000, -74.851
1007.4000, -76.817
1007.5000, -74.617
1007.6000, -75.130
1007.7000, -75.707
1007.8000, -75.919
1007.9000, -74.795
1008.0000, -76.803
1008.1000, -75.301
1008.2000, -75.655
1008.3000, -76.969
1008.4000, -74.471
1008.5000, -76.150
1008.6000, -79.131
1008.7000, -75.554
1008.8000, -76.377
1008.9000, -76.665
1009.0000, -75.353
1009.1000, -75.419
1009.2000, -77.182
1009.3000, -73.633
1009.4000, -76.448
1009.5000, -80.306
1009.6000, -76.773
1009.7000, -74.036
1009.8000, -74.667
1009.9000, -75.094
1010.0000, -76.181
1010.1000, -77.715
1010.2000, -74.422
1010.3000, -75.480
1010.4000, -77.586
1010.5000, -74.587
1010.6000, -75.279
1010.7000, -75.841
1010.8000, -75.543
1010.9000, -74.593
1011.0000, -75.574
1011.1000, -76.342
1011.2000, -76.164
1011.3000, -75.260
1011.4000, -74.921
1011.5000, -79.408
1011.6000, -75.049
1011.7000, -76.609
1011.8000, -74.804
1011.9000, -75.850
1012.0000, -75.922
1012.1000, -76.006
1012.2000, -77.146
1012.3000, -75.173
1012.4000, -76.149
1012.5000, -75.917
1012.6000, -75.565
1012.7000, -75.731
1012.8000, -74.632
1012.9000, -76.753
1013.0000, -78.171
1013.1000, -75.982
1013.2000, -75.958
1013.3000, -76.676
1013.4000, -76.229
1013.5000, -75.904
1013.6000, -75.531
1013.7000, -75.626
1013.8000, -76.420
1013.9000, -75.818
1014.0000, -74.792
1014.1000, -75.718
1014.2000, -75.916
1014.3000, -75.655
1014.4000, -74.990
1014.5000, -75.278
1014.6000, -75.613
1014.7000, -76.690
1014.8000, -74.931
1014.9000, -75.684
1015.0000, -73.471
1015.1000, -77.492
1015.2000, -74.394
1015.3000, -75.236
1015.4000, -76.417
1015.5000, -75.810
1015.6000, -75.685
1015.7000, -77.207
1015.8000, -74.453
1015.9000, -75.129
1016.0000, -76.721
1016.1000, -74.569
1016.2000, -76.005
1016.3000, -74.338
1016.4000, -79.246
1016.5000, -77.831
1016.6000, -75.319
1016.7000, -74.903
1016.8000, -76.676
1016.9000, -75.057
1017.0000, -75.421
1017.1000, -76.756
1017.2000, -74.748
1017.3000, -78.278
1017.4000, -73.318
1017.5000, -76.527
1017.6000, -77.151
1017.7000, -75.134
1017.8000, -74.671
1017.9000, -75.202
1018.0000, -76.591
1018.1000, -74.463
1018.2000, -75.026
1018.3000, -74.739
1018.4000, -75.023
1018.5000, -74.800
1018.6000, -75.774
1018.7000, -74.746
1018.8000, -77.802
1018.9000, -76.218
1019.0000, -73.773
1019.1000, -76.155
1019.2000, -75.344
1019.3000, -75.548
1019.4000, -77.497
1019.5000, -74.690
1019.6000, -75.897
1019.7000, -74.944
1019.8000, -74.444
1019.9000, -76.115
1020.0000, -77.677
1020.1000, -75.133
1020.2000, -76.224
1020.3000, -78.055
1020.4000, -73.801
1020.5000, -77.009
1020.6000, -75.220
1020.7000, -74.594
1020.8000, -77.144
1020.9000, -72.959
1021.0000, -75.090
1021.1000, -75.224
1021.2000, -76.497
1021.3000, -75.158
1021.4000, -75.349
1021.5000, -75.429
1021.6000, -75.337
1021.7000, -74.980
1021.8000, -75.004
1021.9000, -75.342
1022.0000, -78.458
1022.1000, -73.148
1022.2000, -77.820
1022.3000, -76.545
1022.4000, -74.403
1022.5000, -74.435
1022.6000, -74.423
1022.7000, -74.309
1022.8000, -73.176
1022.9000, -75.418
1023.0000, -75.578
1023.1000, -74.807
1023.2000, -74.102
1023.3000, -75.740
1023.4000, -75.356
1023.5000, -74.858
1023.6000, -75.777
1023.7000, -77.089
1023.8000, -75.479
1023.9000, -75.121
1024.0000, -75.846
1024.1000, -75.450
1024.2000, -75.733
1024.3000, -75.778
1024.4000, -76.292
1024.5000, -74.964
1024.6000, -75.827
1024.7000, -75.124
1024.8000, -77.089
1024.9000, -75.799
1025.0000, -72.498
1025.1000, -74.924
1025.2000, -74.968
1025.3000, -75.051
1025.4000, -74.643
1025.5000, -77.108
1025.6000, -74.180
1025.7000, -74.478
1025.8000, -75.770
1025.9000, -75.423
1026.0000, -75.285
1026.1000, -76.441
1026.2000, -75.431
1026.3000, -75.608
1026.4000, -74.649
1026.5000, -73.867
1026.6000, -74.795
1026.7000, -75.379
1026.8000, -75.289
1026.9000, -74.210
1027.0000, -74.238
1027.1000, -75.799
1027.2000, -75.179
1027.3000, -77.962
1027.4000, -75.503
1027.5000, -73.155
1027.6000, -75.995
1027.7000, -70.114
1027.8000, -75.612
1027.9000, -75.183
1028.0000, -74.965
1028.1000, -73.295
1028.2000, -74.408
1028.3000, -75.576
1028.4000, -76.068
1028.5000, -75.692
1028.6000, -75.061
1028.7000, -75.657
1028.8000, -74.984
1028.9000, -76.126
1029.0000, -74.582
1029.1000, -75.923
1029.2000, -77.024
1029.3000, -74.256
1029.4000, -74.471
1029.5000, -74.569
1029.6000, -75.329
1029.7000, -75.156
1029.8000, -74.082
1029.9000, -74.292
1030.0000, -74.417
1030.1000, -74.887
1030.2000, -73.455
1030.3000, -75.641
1030.4000, -74.085
1030.5000, -77.138
1030.6000, -74.938
1030.7000, -75.993
1030.8000, -72.806
1030.9000, -73.735
1031.0000, -74.890
1031.1000, -73.632
1031.2000, -75.968
1031.3000, -75.088
1031.4000, -76.272
1031.5000, -74.429
1031.6000, -74.729
1031.7000, -71.799
1031.8000, -72.717
1031.9000, -73.599
1032.0000, -74.595
1032.1000, -75.533
1032.2000, -71.633
1032.3000, -73.552
1032.4000, -74.742
1032.5000, -73.899
1032.6000, -76.226
1032.7000, -71.897
1032.8000, -74.045
1032.9000, -74.881
1033.0000, -74.706
1033.1000, -75.966
1033.2000, -74.656
1033.3000, -75.206
1033.4000, -73.224
1033.5000, -75.932
1033.6000, -75.013
1033.7000, -75.042
1033.8000, -73.054
1033.9000, -72.950
1034.0000, -75.324
1034.1000, -75.006
1034.2000, -74.912
1034.3000, -74.447
1034.4000, -74.663
1034.5000, -75.096
1034.6000, -72.079
1034.7000, -74.593
1034.8000, -73.490
1034.9000, -70.049
1035.0000, -73.514
1035.1000, -76.045
1035.2000, -74.259
1035.3000, -71.596
1035.4000, -74.679
1035.5000, -71.363
1035.6000, -70.956
1035.7000, -72.494
1035.8000, -74.209
1035.9000, -70.841
1036.0000, -69.981
1036.1000, -72.611
1036.2000, -73.993
1036.3000, -74.478
1036.4000, -72.533
1036.5000, -72.084
1036.6000, -71.097
1036.7000, -73.356
1036.8000, -75.166
1036.9000, -74.590
1037.0000, -68.033
1037.1000, -71.268
1037.2000, -73.495
1037.3000, -69.862
1037.4000, -72.067
1037.5000, -74.678
1037.6000, -74.867
1037.7000, -70.887
1037.8000, -73.448
1037.9000, -70.904
1038.0000, -72.295
1038.1000, -71.519
1038.2000, -72.546
1038.3000, -69.641
1038.4000, -68.680
1038.5000, -67.745
1038.6000, -73.173
1038.7000, -70.571
1038.8000, -71.601
1038.9000, -71.115
1039.0000, -69.469
1039.1000, -70.337
1039.2000, -73.281
1039.3000, -70.884
1039.4000, -70.725
1039.5000, -68.335
1039.6000, -72.086
1039.7000, -70.392
1039.8000, -70.579
1039.9000, -68.115
1040.0000, -69.023
1040.1000, -69.805
1040.2000, -71.126
1040.3000, -69.321
1040.4000, -71.408
1040.5000, -72.432
1040.6000, -69.050
1040.7000, -68.510
1040.8000, -69.209
1040.9000, -69.139
1041.0000, -69.470
1041.1000, -70.430
1041.2000, -68.345
1041.3000, -67.854
1041.4000, -69.149
1041.5000, -68.745
1041.6000, -69.343
1041.7000, -67.605
1041.8000, -68.332
1041.9000, -68.680
1042.0000, -68.527
1042.1000, -69.281
1042.2000, -70.618
1042.3000, -67.252
1042.4000, -69.741
1042.5000, -72.778
1042.6000, -65.914
1042.7000, -67.532
1042.8000, -68.661
1042.9000, -67.340
1043.0000, -67.034
1043.1000, -68.675
1043.2000, -68.701
1043.3000, -70.662
1043.4000, -70.434
1043.5000, -68.010
1043.6000, -67.951
1043.7000, -66.981
1043.8000, -67.158
1043.9000, -65.437
1044.0000, -67.692
1044.1000, -67.158
1044.2000, -68.089
1044.3000, -67.706
1044.4000, -66.089
1044.5000, -65.926
1044.6000, -65.460
1044.7000, -66.148
1044.8000, -66.405
1044.9000, -66.084
1045.0000, -66.867
1045.1000, -66.845
1045.2000, -67.385
1045.3000, -67.297
1045.4000, -65.778
1045.5000, -68.248
1045.6000, -65.229
1045.7000, -67.752
1045.8000, -66.581
1045.9000, -66.938
1046.0000, -66.255
1046.1000, -65.721
1046.2000, -67.137
1046.3000, -66.200
1046.4000, -65.764
1046.5000, -65.625
1046.6000, -66.352
1046.7000, -66.590
1046.8000, -66.372
1046.9000, -66.510
1047.0000, -65.677
1047.1000, -64.552
1047.2000, -68.224
1047.3000, -65.254
1047.4000, -66.772
1047.5000, -67.142
1047.6000, -65.021
1047.7000, -64.147
1047.8000, -63.989
1047.9000, -64.734
1048.0000, -63.773
1048.1000, -66.159
1048.2000, -65.403
1048.3000, -65.325
1048.4000, -64.151
1048.5000, -64.096
1048.6000, -64.030
1048.7000, -62.332
1048.8000, -62.990
1048.9000, -64.572
1049.0000, -64.950
1049.1000, -63.823
1049.2000, -62.374
1049.3000, -63.998
1049.4000, -63.700
1049.5000, -63.019
1049.6000, -63.280
1049.7000, -63.966
1049.8000, -64.027
1049.9000, -64.615
1050.0000, -64.547
1050.1000, -64.221
1050.2000, -64.099
1050.3000, -64.201
1050.4000, -63.243
1050.5000, -62.782
1050.6000, -64.480
1050.7000, -64.284
1050.8000, -64.513
1050.9000, -65.992
1051.0000, -63.941
1051.1000, -63.548
1051.2000, -62.554
1051.3000, -63.036
1051.4000, -64.582
1051.5000, -62.207
1051.6000, -63.479
1051.7000, -63.963
1051.8000, -64.016
1051.9000, -64.479
1052.0000, -63.023
1052.1000, -61.729
1052.2000, -63.087
1052.3000, -62.709
1052.4000, -63.075
1052.5000, -62.819
1052.6000, -61.158
1052.7000, -62.110
1052.8000, -61.876
1052.9000, -62.995
1053.0000, -62.121
1053.1000, -63.087
1053.2000, -62.320
1053.3000, -62.161
1053.4000, -62.045
1053.5000, -62.730
1053.6000, -60.922
1053.7000, -60.909
1053.8000, -59.902
1053.9000, -59.955
1054.0000, -58.593
1054.1000, -57.844
1054.2000, -57.117
1054.3000, -56.150
1054.4000, -55.752
1054.5000, -55.420
1054.6000, -55.194
1054.7000, -55.354
1054.8000, -55.566
1054.9000, -55.902
1055.0000, -56.408
1055.1000, -56.729
1055.2000, -57.152
1055.3000, -57.702
1055.4000, -58.994
1055.5000, -58.996
1055.6000, -58.842
1055.7000, -59.596
1055.8000, -61.236
1055.9000, -61.380
1056.0000, -62.463
1056.1000, -61.684
1056.2000, -61.367
1056.3000, -62.226
1056.4000, -61.769
1056.5000, -61.179
1056.6000, -61.777
1056.7000, -61.429
1056.8000, -59.759
1056.9000, -59.975
1057.0000, -59.839
1057.1000, -60.529
1057.2000, -59.879
1057.3000, -60.381
1057.4000, -59.168
1057.5000, -59.392
1057.6000, -59.381
1057.7000, -59.575
1057.8000, -59.190
1057.9000, -59.547
1058.0000, -58.889
1058.1000, -58.418
1058.2000, -58.592
1058.3000, -58.424
1058.4000, -58.371
1058.5000, -57.855
1058.6000, -58.041
1058.7000, -57.410
1058.8000, -57.278
1058.9000, -57.158
1059.0000, -57.089
1059.1000, -56.643
1059.2000, -56.231
1059.3000, -56.056
1059.4000, -55.897
1059.5000, -56.064
1059.6000, -55.630
1059.7000, -55.460
1059.8000, -55.161
1059.9000, -55.142
1060.0000, -54.859
1060.1000, -54.391
1060.2000, -54.213
1060.3000, -53.859
1060.4000, -53.402
1060.5000, -53.035
1060.6000, -53.044
1060.7000, -52.497
1060.8000, -52.044
1060.9000, -51.593
1061.0000, -51.157
1061.1000, -50.802
1061.2000, -50.323
1061.3000, -49.855
1061.4000, -49.331
1061.5000, -48.989
1061.6000, -48.593
1061.7000, -48.226
1061.8000, -47.909
1061.9000, -47.809
1062.0000, -47.654
1062.1000, -47.281
1062.2000, -47.160
1062.3000, -46.943
1062.4000, -46.618
1062.5000, -46.405
1062.6000, -45.952
1062.7000, -45.568
1062.8000, -45.031
1062.9000, -44.564
1063.0000, -43.974
1063.1000, -43.481
1063.2000, -42.856
1063.3000, -42.024
1063.4000, -40.702
1063.5000, -38.717
1063.6000, -35.119
1063.7000, -30.033
1063.8000, -27.119
1063.9000, -25.941
1064.0000, -24.929
1064.1000, -24.062
1064.2000, -21.859
1064.3000, -17.535
1064.4000, -15.335
1064.5000, -14.880
1064.6000, -14.938
1064.7000, -15.020
1064.8000, -15.121
1064.9000, -15.347
1065.0000, -17.081
1065.1000, -21.793
1065.2000, -33.308
1065.3000, -38.326
1065.4000, -39.858
1065.5000, -40.806
1065.6000, -41.610
1065.7000, -42.261
1065.8000, -42.731
1065.9000, -43.096
1066.0000, -43.283
1066.1000, -43.429
1066.2000, -43.642
1066.3000, -43.589
1066.4000, -43.481
1066.5000, -43.240
1066.6000, -43.133
1066.7000, -42.993
1066.8000, -42.894
1066.9000, -42.541
1067.0000, -42.461
1067.1000, -42.159
1067.2000, -41.874
1067.3000, -41.545
1067.4000, -41.429
1067.5000, -41.003
1067.6000, -40.794
1067.7000, -40.435
1067.8000, -40.184
1067.9000, -40.042
1068.0000, -39.610
1068.1000, -39.339
1068.2000, -39.061
1068.3000, -38.743
1068.4000, -38.502
1068.5000, -38.405
1068.6000, -38.031
1068.7000, -37.798
1068.8000, -37.499
1068.9000, -37.240
1069.0000, -36.868
1069.1000, -36.566
1069.2000, -36.361
1069.3000, -36.115
1069.4000, -35.766
1069.5000, -35.558
1069.6000, -35.260
1069.7000, -35.101
1069.8000, -34.733
1069.9000, -34.397
1070.0000, -34.244
1070.1000, -33.895
1070.2000, -33.704
1070.3000, -33.365
1070.4000, -32.937
1070.5000, -32.500
1070.6000, -32.239
1070.7000, -32.043
1070.8000, -31.663
1070.9000, -31.407
1071.0000, -31.089
1071.1000, -30.654
1071.2000, -30.489
1071.3000, -30.094
1071.4000, -29.694
1071.5000, -29.334
1071.6000, -28.989
1071.7000, -28.791
1071.8000, -28.399
1071.9000, -28.133
1072.0000, -27.760
1072.1000, -27.372
1072.2000, -27.086
1072.3000, -26.824
1072.4000, -26.430
1072.5000, -26.037
1072.6000, -25.658
1072.7000, -25.181
1072.8000, -24.599
1072.9000, -24.165
1073.0000, -23.508
1073.1000, -23.224
1073.2000, -22.924
1073.3000, -22.681
1073.4000, -22.267
1073.5000, -22.041
1073.6000, -21.892
1073.7000, -21.647
1073.8000, -21.327
1073.9000, -20.935
1074.0000, -20.622
1074.1000, -20.327
1074.2000, -20.164
1074.3000, -20.086
1074.4000, -20.055
1074.5000, -19.897
1074.6000, -19.828
1074.7000, -19.774
1074.8000, -19.617
1074.9000, -19.191
1075.0000, -18.946
1075.1000, -18.462
1075.2000, -18.029
1075.3000, -17.572
1075.4000, -16.960
1075.5000, -16.490
1075.6000, -16.006
1075.7000, -15.513
1075.8000, -15.234
1075.9000, -14.870
1076.0000, -14.627
1076.1000, -14.554
1076.2000, -14.500
1076.3000, -14.563
1076.4000, -14.611
1076.5000, -14.844
1076.6000, -15.047
1076.7000, -15.379
1076.8000, -15.547
1076.9000, -15.887
1077.0000, -16.214
1077.1000, -16.530
1077.2000, -16.717
1077.3000, -17.031
1077.4000, -17.344
1077.5000, -17.519
1077.6000, -17.857
1077.7000, -17.911
1077.8000, -18.185
1077.9000, -18.311
1078.0000, -18.494
1078.1000, -18.632
1078.2000, -18.789
1078.3000, -18.865
1078.4000, -19.077
1078.5000, -19.159
1078.6000, -19.347
1078.7000, -19.456
1078.8000, -19.542
1078.9000, -19.727
1079.0000, -19.925
1079.1000, -20.035
1079.2000, -20.226
1079.3000, -20.302
1079.4000, -20.400
1079.5000, -20.578
1079.6000, -20.747
1079.7000, -20.847
1079.8000, -21.016
1079.9000, -21.095
1080.0000, -21.249
1080.1000, -21.436
1080.2000, -21.500
1080.3000, -21.521
1080.4000, -21.644
1080.5000, -21.769
1080.6000, -21.968
1080.7000, -21.961
1080.8000, -22.080
1080.9000, -22.110
1081.0000, -22.205
1081.1000, -22.282
1081.2000, -22.339
1081.3000, -22.468
1081.4000, -22.519
1081.5000, -22.550
1081.6000, -22.542
1081.7000, -22.633
1081.8000, -22.773
1081.9000, -22.749
1082.0000, -22.833
1082.1000, -22.881
1082.2000, -22.922
1082.3000, -22.993
1082.4000, -22.928
1082.5000, -23.049
1082.6000, -23.091
1082.7000, -23.115
1082.8000, -23.192
1082.9000, -23.230
1083.0000, -23.237
1083.1000, -23.295
1083.2000, -23.430
1083.3000, -23.514
1083.4000, -23.502
1083.5000, -23.572
1083.6000, -23.663
1083.7000, -23.687
1083.8000, -23.682
1083.9000, -23.846
1084.0000, -23.902
1084.1000, -23.984
1084.2000, -23.982
1084.3000, -24.218
1084.4000, -24.267
1084.5000, -24.270
1084.6000, -24.409
1084.7000, -24.416
1084.8000, -24.518
1084.9000, -24.751
1085.0000, -24.727
1085.1000, -24.842
1085.2000, -24.995
1085.3000, -25.107
1085.4000, -25.279
1085.5000, -25.282
1085.6000, -25.506
1085.7000, -25.562
1085.8000, -25.666
1085.9000, -25.855
1086.0000, -26.001
1086.1000, -26.114
1086.2000, -26.158
1086.3000, -26.245
1086.4000, -26.480
1086.5000, -26.586
1086.6000, -26.863
1086.7000, -26.848
1086.8000, -27.097
1086.9000, -27.136
1087.0000, -27.306
1087.1000, -27.433
1087.2000, -27.575
1087.3000, -27.692
1087.4000, -27.842
1087.5000, -28.104
1087.6000, -28.123
1087.7000, -28.376
1087.8000, -28.552
1087.9000, -28.751
1088.0000, -28.881
1088.1000, -28.967
1088.2000, -29.273
1088.3000, -29.292
1088.4000, -29.493
1088.5000, -29.784
1088.6000, -29.924
1088.7000, -30.110
1088.8000, -30.331
1088.9000, -30.510
1089.0000, -30.685
1089.1000, -30.851
1089.2000, -30.988
1089.3000, -31.186
1089.4000, -31.458
1089.5000, -31.643
1089.6000, -31.821
1089.7000, -31.974
1089.8000, -32.099
1089.9000, -32.233
1090.0000, -32.353
1090.1000, -32.620
1090.2000, -32.791
1090.3000, -32.994
1090.4000, -33.363
1090.5000, -33.368
1090.6000, -33.547
1090.7000, -33.794
1090.8000, -33.957
1090.9000, -34.079
1091.0000, -34.380
1091.1000, -34.471
1091.2000, -34.778
1091.3000, -35.085
1091.4000, -35.314
1091.5000, -35.511
1091.6000, -35.538
1091.7000, -35.978
1091.8000, -36.117
1091.9000, -36.182
1092.0000, -36.508
1092.1000, -36.824
1092.2000, -36.873
1092.3000, -37.214
1092.4000, -37.517
1092.5000, -37.470
1092.6000, -37.871
1092.7000, -38.001
1092.8000, -38.195
1092.9000, -38.487
1093.0000, -38.605
1093.1000, -38.832
1093.2000, -38.837
1093.3000, -39.251
1093.4000, -39.441
1093.5000, -39.662
1093.6000, -39.781
1093.7000, -40.055
1093.8000, -40.276
1093.9000, -40.381
1094.0000, -40.680
1094.1000, -40.830
1094.2000, -40.998
1094.3000, -41.104
1094.4000, -41.278
1094.5000, -41.421
1094.6000, -41.620
1094.7000, -41.874
1094.8000, -41.910
1094.9000, -42.071
1095.0000, -42.210
1095.1000, -42.476
1095.2000, -42.634
1095.3000, -42.755
1095.4000, -42.802
1095.5000, -42.810
1095.6000, -43.175
1095.7000, -43.147
1095.8000, -43.391
1095.9000, -43.351
1096.0000, -43.457
1096.1000, -43.540
1096.2000, -43.635
1096.3000, -43.755
1096.4000, -43.753
1096.5000, -43.809
1096.6000, -43.903
1096.7000, -43.907
1096.8000, -43.967
1096.9000, -44.033
1097.0000, -44.009
1097.1000, -43.995
1097.2000, -44.171
1097.3000, -44.206
1097.4000, -44.156
1097.5000, -44.082
1097.6000, -44.136
1097.7000, -44.170
1097.8000, -44.192
1097.9000, -44.170
1098.0000, -44.114
1098.1000, -44.094
1098.2000, -44.000
1098.3000, -44.191
1098.4000, -44.032
1098.5000, -44.092
1098.6000, -43.988
1098.7000, -43.957
1098.8000, -43.949
1098.9000, -43.923
1099.0000, -43.891
1099.1000, -43.905
1099.2000, -43.801
1099.3000, -43.687
1099.4000, -43.690
1099.5000, -43.660
1099.6000, -43.634
1099.7000, -43.581
1099.8000, -43.445
1099.9000, -43.387
1100.0000, -43.320
1100.1000, -43.356
1100.2000, -43.251
1100.3000, -43.205
1100.4000, -43.105
1100.5000, -43.058
1100.6000, -42.957
1100.7000, -42.918
1100.8000, -42.798
1100.9000, -42.721
1101.0000, -42.666
1101.1000, -42.660
1101.2000, -42.561
1101.3000, -42.520
1101.4000, -42.418
1101.5000, -42.351
1101.6000, -42.212
1101.7000, -42.152
1101.8000, -41.991
1101.9000, -41.950
1102.0000, -41.884
1102.1000, -41.822
1102.2000, -41.717
1102.3000, -41.579
1102.4000, -41.527
1102.5000, -41.437
1102.6000, -41.362
1102.7000, -41.248
1102.8000, -41.107
1102.9000, -41.012
1103.0000, -40.910
1103.1000, -40.880
1103.2000, -40.752
1103.3000, -40.608
1103.4000, -40.569
1103.5000, -40.452
1103.6000, -40.317
1103.7000, -40.254
1103.8000, -40.048
1103.9000, -39.974
1104.0000, -39.795
1104.1000, -39.756
1104.2000, -39.630
1104.3000, -39.510
1104.4000, -39.385
1104.5000, -39.268
1104.6000, -39.083
1104.7000, -38.984
1104.8000, -38.900
1104.9000, -38.763
1105.0000, -38.642
1105.1000, -38.540
1105.2000, -38.304
1105.3000, -38.178
1105.4000, -38.078
1105.5000, -37.950
1105.6000, -37.795
1105.7000, -37.701
1105.8000, -37.528
1105.9000, -37.339
1106.0000, -37.232
1106.1000, -37.036
1106.2000, -36.895
1106.3000, -36.708
1106.4000, -36.588
1106.5000, -36.445
1106.6000, -36.325
1106.7000, -36.178
1106.8000, -36.033
1106.9000, -35.814
1107.0000, -35.703
1107.1000, -35.507
1107.2000, -35.394
1107.3000, -35.245
1107.4000, -35.050
1107.5000, -34.881
1107.6000, -34.782
1107.7000, -34.618
1107.8000, -34.460
1107.9000, -34.275
1108.0000, -34.147
1108.1000, -33.985
1108.2000, -33.818
1108.3000, -33.628
1108.4000, -33.532
1108.5000, -33.354
1108.6000, -33.187
1108.7000, -33.005
1108.8000, -32.916
1108.9000, -32.730
1109.0000, -32.573
1109.1000, -32.437
1109.2000, -32.278
1109.3000, -32.071
1109.4000, -31.917
1109.5000, -31.814
1109.6000, -31.597
1109.7000, -31.467
1109.8000, -31.287
1109.9000, -31.155
1110.0000, -30.960
1110.1000, -30.841
1110.2000, -30.685
1110.3000, -30.498
1110.4000, -30.408
1110.5000, -30.316
1110.6000, -29.990
1110.7000, -29.853
1110.8000, -29.687
1110.9000, -29.636
1111.0000, -29.453
1111.1000, -29.290
1111.2000, -29.133
1111.3000, -28.948
1111.4000, -28.799
1111.5000, -28.607
1111.6000, -28.454
1111.7000, -28.329
1111.8000, -28.190
1111.9000, -27.993
1112.0000, -27.844
1112.1000, -27.658
1112.2000, -27.502
1112.3000, -27.380
1112.4000, -27.254
1112.5000, -27.040
1112.6000, -26.865
1112.7000, -26.755
1112.8000, -26.603
1112.9000, -26.419
1113.0000, -26.231
1113.1000, -26.049
1113.2000, -25.904
1113.3000, -25.741
1113.4000, -25.580
1113.5000, -25.383
1113.6000, -25.263
1113.7000, -25.111
1113.8000, -24.965
1113.9000, -24.807
1114.0000, -24.629
1114.1000, -24.441
1114.2000, -24.225
1114.3000, -24.114
1114.4000, -23.971
1114.5000, -23.828
1114.6000, -23.649
1114.7000, -23.460
1114.8000, -23.325
1114.9000, -23.212
1115.0000, -23.036
1115.1000, -22.764
1115.2000, -22.739
1115.3000, -22.549
1115.4000, -22.414
1115.5000, -22.231
1115.6000, -22.071
1115.7000, -21.900
1115.8000, -21.734
1115.9000, -21.656
1116.0000, -21.495
1116.1000, -21.393
1116.2000, -21.284
1116.3000, -21.106
1116.4000, -21.024
1116.5000, -20.878
1116.6000, -20.741
1116.7000, -20.638
1116.8000, -20.523
1116.9000, -20.386
1117.0000, -20.293
1117.1000, -20.241
1117.2000, -20.155
1117.3000, -20.040
1117.4000, -19.941
1117.5000, -19.811
1117.6000, -19.747
1117.7000, -19.713
1117.8000, -19.610
1117.9000, -19.547
1118.0000, -19.463
1118.1000, -19.427
1118.2000, -19.359
1118.3000, -19.358
1118.4000, -19.315
1118.5000, -19.232
1118.6000, -19.206
1118.7000, -19.153
1118.8000, -19.099
1118.9000, -19.062
1119.0000, -18.986
1119.1000, -18.963
1119.2000, -18.910
1119.3000, -18.852
1119.4000, -18.783
1119.5000, -18.762
1119.6000, -18.733
1119.7000, -18.647
1119.8000, -18.597
1119.9000, -18.530
1120.0000, -18.464
1120.1000, -18.429
1120.2000, -18.373
1120.3000, -18.244
1120.4000, -18.216
1120.5000, -18.075
1120.6000, -18.010
1120.7000, -17.886
1120.8000, -17.781
1120.9000, -17.625
1121.0000, -17.539
1121.1000, -17.444
1121.2000, -17.329
1121.3000, -17.148
1121.4000, -16.992
1121.5000, -16.865
1121.6000, -16.713
1121.7000, -16.547
1121.8000, -16.429
1121.9000, -16.296
1122.0000, -16.141
1122.1000, -16.029
1122.2000, -15.990
1122.3000, -15.815
1122.4000, -15.735
1122.5000, -15.664
1122.6000, -15.630
1122.7000, -15.545
1122.8000, -15.542
1122.9000, -15.485
1123.0000, -15.512
1123.1000, -15.546
1123.2000, -15.584
1123.3000, -15.618
1123.4000, -15.679
1123.5000, -15.781
1123.6000, -15.910
1123.7000, -16.052
1123.8000, -16.138
1123.9000, -16.249
1124.0000, -16.463
1124.1000, -16.589
1124.2000, -16.708
1124.3000, -16.877
1124.4000, -17.102
1124.5000, -17.209
1124.6000, -17.416
1124.7000, -17.563
1124.8000, -17.725
1124.9000, -17.920
1125.0000, -18.069
1125.1000, -18.258
1125.2000, -18.342
1125.3000, -18.568
1125.4000, -18.785
1125.5000, -18.911
1125.6000, -19.030
1125.7000, -19.199
1125.8000, -19.314
1125.9000, -19.485
1126.0000, -19.612
1126.1000, -19.724
1126.2000, -19.865
1126.3000, -19.947
1126.4000, -20.074
1126.5000, -20.184
1126.6000, -20.283
1126.7000, -20.374
1126.8000, -20.477
1126.9000, -20.621
1127.0000, -20.595
1127.1000, -20.693
1127.2000, -20.785
1127.3000, -20.843
1127.4000, -20.927
1127.5000, -21.030
1127.6000, -21.049
1127.7000, -21.102
1127.8000, -21.126
1127.9000, -21.155
1128.0000, -21.191
1128.1000, -21.212
1128.2000, -21.271
1128.3000, -21.292
1128.4000, -21.277
1128.5000, -21.288
1128.6000, -21.279
1128.7000, -21.267
1128.8000, -21.311
1128.9000, -21.343
1129.0000, -21.236
1129.1000, -21.268
1129.2000, -21.253
1129.3000, -21.287
1129.4000, -21.292
1129.5000, -21.289
1129.6000, -21.241
1129.7000, -21.280
1129.8000, -21.283
1129.9000, -21.331
1130.0000, -21.258
1130.1000, -21.257
1130.2000, -21.135
1130.3000, -21.249
1130.4000, -21.182
1130.5000, -21.204
1130.6000, -21.258
1130.7000, -21.219
1130.8000, -21.168
1130.9000, -21.210
1131.0000, -21.142
1131.1000, -21.278
1131.2000, -21.228
1131.3000, -21.222
1131.4000, -21.260
1131.5000, -21.234
1131.6000, -21.206
1131.7000, -21.232
1131.8000, -21.234
1131.9000, -21.236
1132.0000, -21.267
1132.1000, -21.308
1132.2000, -21.335
1132.3000, -21.308
1132.4000, -21.275
1132.5000, -21.416
1132.6000, -21.341
1132.7000, -21.427
1132.8000, -21.346
1132.9000, -21.359
1133.0000, -21.453
1133.1000, -21.451
1133.2000, -21.535
1133.3000, -21.484
1133.4000, -21.568
1133.5000, -21.511
1133.6000, -21.546
1133.7000, -21.597
1133.8000, -21.691
1133.9000, -21.716
1134.0000, -21.715
1134.1000, -21.819
1134.2000, -21.830
1134.3000, -21.881
1134.4000, -21.885
1134.5000, -21.995
1134.6000, -21.941
1134.7000, -22.091
1134.8000, -22.191
1134.9000, -22.178
1135.0000, -22.222
1135.1000, -22.287
1135.2000, -22.270
1135.3000, -22.346
1135.4000, -22.428
1135.5000, -22.393
1135.6000, -22.565
1135.7000, -22.593
1135.8000, -22.656
1135.9000, -22.731
1136.0000, -22.841
1136.1000, -22.955
1136.2000, -22.998
1136.3000, -23.071
1136.4000, -23.128
1136.5000, -23.287
1136.6000, -23.314
1136.7000, -23.329
1136.8000, -23.474
1136.9000, -23.554
1137.0000, -23.658
1137.1000, -23.669
1137.2000, -23.749
1137.3000, -23.807
1137.4000, -23.908
1137.5000, -24.003
1137.6000, -24.128
1137.7000, -24.227
1137.8000, -24.320
1137.9000, -24.411
1138.0000, -24.614
1138.1000, -24.689
1138.2000, -24.663
1138.3000, -24.917
1138.4000, -24.906
1138.5000, -25.030
1138.6000, -25.145
1138.7000, -25.233
1138.8000, -25.401
1138.9000, -25.442
1139.0000, -25.640
1139.1000, -25.716
1139.2000, -25.874
1139.3000, -26.042
1139.4000, -26.099
1139.5000, -26.253
1139.6000, -26.279
1139.7000, -26.433
1139.8000, -26.591
1139.9000, -26.599
1140.0000, -26.665
1140.1000, -26.816
1140.2000, -27.063
1140.3000, -27.130
1140.4000, -27.185
1140.5000, -27.375
1140.6000, -27.449
1140.7000, -27.517
1140.8000, -27.723
1140.9000, -27.784
1141.0000, -27.967
1141.1000, -28.000
1141.2000, -28.218
1141.3000, -28.211
1141.4000, -28.409
1141.5000, -28.544
1141.6000, -28.759
1141.7000, -28.702
1141.8000, -28.780
1141.9000, -28.972
1142.0000, -28.966
1142.1000, -29.244
1142.2000, -29.232
1142.3000, -29.429
1142.4000, -29.498
1142.5000, -29.807
1142.6000, -29.895
1142.7000, -29.858
1142.8000, -30.235
1142.9000, -30.244
1143.0000, -30.434
1143.1000, -30.534
1143.2000, -30.615
1143.3000, -30.883
1143.4000, -30.991
1143.5000, -30.996
1143.6000, -31.307
1143.7000, -31.367
1143.8000, -31.458
1143.9000, -31.700
1144.0000, -31.793
1144.1000, -32.065
1144.2000, -31.991
1144.3000, -32.255
1144.4000, -32.225
1144.5000, -32.427
1144.6000, -32.577
1144.7000, -32.667
1144.8000, -32.968
1144.9000, -33.082
1145.0000, -33.244
1145.1000, -33.356
1145.2000, -33.241
1145.3000, -33.489
1145.4000, -33.533
1145.5000, -33.717
1145.6000, -33.823
1145.7000, -34.092
1145.8000, -34.210
1145.9000, -34.330
1146.0000, -34.509
1146.1000, -34.604
1146.2000, -34.469
1146.3000, -34.711
1146.4000, -34.959
1146.5000, -35.097
1146.6000, -35.246
1146.7000, -35.578
1146.8000, -35.476
1146.9000, -35.675
1147.0000, -36.090
1147.1000, -35.941
1147.2000, -36.270
1147.3000, -36.450
1147.4000, -36.446
1147.5000, -36.598
1147.6000, -36.640
1147.7000, -36.666
1147.8000, -37.027
1147.9000, -37.153
1148.0000, -37.228
1148.1000, -37.375
1148.2000, -37.394
1148.3000, -37.631
1148.4000, -37.595
1148.5000, -37.892
1148.6000, -38.054
1148.7000, -38.266
1148.8000, -38.403
1148.9000, -38.158
1149.0000, -38.599
1149.1000, -38.624
1149.2000, -38.766
1149.3000, -38.897
1149.4000, -39.077
1149.5000, -39.268
1149.6000, -39.371
1149.7000, -39.428
1149.8000, -39.519
1149.9000, -39.665
1150.0000, -39.860
1150.1000, -39.791
1150.2000, -40.084
1150.3000, -39.963
1150.4000, -40.077
1150.5000, -40.205
1150.6000, -40.434
1150.7000, -40.565
1150.8000, -40.488
1150.9000, -40.747
1151.0000, -40.629
1151.1000, -40.728
1151.2000, -40.963
1151.3000, -41.069
1151.4000, -41.153
1151.5000, -41.138
1151.6000, -41.193
1151.7000, -41.438
1151.8000, -41.419
1151.9000, -41.509
1152.0000, -41.548
1152.1000, -41.667
1152.2000, -41.785
1152.3000, -41.657
1152.4000, -41.659
1152.5000, -41.768
1152.6000, -42.036
1152.7000, -41.986
1152.8000, -42.046
1152.9000, -41.858
1153.0000, -41.965
1153.1000, -42.033
1153.2000, -41.967
1153.3000, -41.970
1153.4000, -42.081
1153.5000, -41.994
1153.6000, -42.069
1153.7000, -42.105
1153.8000, -42.055
1153.9000, -42.064
1154.0000, -41.985
1154.1000, -41.949
1154.2000, -41.927
1154.3000, -41.945
1154.4000, -41.884
1154.5000, -41.765
1154.6000, -41.842
1154.7000, -41.767
1154.8000, -41.843
1154.9000, -41.714
1155.0000, -41.755
1155.1000, -41.753
1155.2000, -41.700
1155.3000, -41.591
1155.4000, -41.503
1155.5000, -41.401
1155.6000, -41.452
1155.7000, -41.327
1155.8000, -41.375
1155.9000, -41.200
1156.0000, -41.248
1156.1000, -41.055
1156.2000, -41.129
1156.3000, -41.074
1156.4000, -40.984
1156.5000, -40.787
1156.6000, -40.846
1156.7000, -40.788
1156.8000, -40.588
1156.9000, -40.506
1157.0000, -40.424
1157.1000, -40.344
1157.2000, -40.267
1157.3000, -40.297
1157.4000, -40.073
1157.5000, -40.153
1157.6000, -40.029
1157.7000, -39.928
1157.8000, -39.834
1157.9000, -39.714
1158.0000, -39.660
1158.1000, -39.504
1158.2000, -39.472
1158.3000, -39.350
1158.4000, -39.353
1158.5000, -39.105
1158.6000, -39.001
1158.7000, -38.969
1158.8000, -38.842
1158.9000, -38.784
1159.0000, -38.674
1159.1000, -38.610
1159.2000, -38.416
1159.3000, -38.508
1159.4000, -38.375
1159.5000, -38.226
1159.6000, -38.054
1159.7000, -37.972
1159.8000, -37.735
1159.9000, -37.766
1160.0000, -37.531
1160.1000, -37.451
1160.2000, -37.438
1160.3000, -37.311
1160.4000, -37.198
1160.5000, -36.948
1160.6000, -36.939
1160.7000, -36.652
1160.8000, -36.398
1160.9000, -36.471
1161.0000, -36.402
1161.1000, -36.279
1161.2000, -36.086
1161.3000, -35.908
1161.4000, -35.891
1161.5000, -35.743
1161.6000, -35.487
1161.7000, -35.461
1161.8000, -35.370
1161.9000, -35.219
1162.0000, -35.047
1162.1000, -35.044
1162.2000, -34.880
1162.3000, -34.741
1162.4000, -34.649
1162.5000, -34.587
1162.6000, -34.401
1162.7000, -34.262
1162.8000, -34.190
1162.9000, -33.962
1163.0000, -33.880
1163.1000, -33.829
1163.2000, -33.651
1163.3000, -33.512
1163.4000, -33.400
1163.5000, -33.378
1163.6000, -33.323
1163.7000, -33.066
1163.8000, -33.058
1163.9000, -32.811
1164.0000, -32.741
1164.1000, -32.657
1164.2000, -32.511
1164.3000, -32.407
1164.4000, -32.303
1164.5000, -32.186
1164.6000, -32.017
1164.7000, -31.886
1164.8000, -31.709
1164.9000, -31.756
1165.0000, -31.600
1165.1000, -31.445
1165.2000, -31.340
1165.3000, -31.318
1165.4000, -30.978
1165.5000, -31.027
1165.6000, -30.835
1165.7000, -30.845
1165.8000, -30.613
1165.9000, -30.513
1166.0000, -30.411
1166.1000, -30.265
1166.2000, -30.121
1166.3000, -29.979
1166.4000, -29.876
1166.5000, -29.816
1166.6000, -29.645
1166.7000, -29.572
1166.8000, -29.458
1166.9000, -29.338
1167.0000, -29.164
1167.1000, -29.086
1167.2000, -28.912
1167.3000, -28.857
1167.4000, -28.784
1167.5000, -28.613
1167.6000, -28.492
1167.7000, -28.412
1167.8000, -28.276
1167.9000, -28.151
1168.0000, -28.009
1168.1000, -27.881
1168.2000, -27.771
1168.3000, -27.628
1168.4000, -27.508
1168.5000, -27.431
1168.6000, -27.301
1168.7000, -27.193
1168.8000, -27.097
1168.9000, -26.989
1169.0000, -26.860
1169.1000, -26.724
1169.2000, -26.619
1169.3000, -26.485
1169.4000, -26.398
1169.5000, -26.319
1169.6000, -26.121
1169.7000, -26.065
1169.8000, -25.983
1169.9000, -25.810
1170.0000, -25.727
1170.1000, -25.646
1170.2000, -25.520
1170.3000, -25.353
1170.4000, -25.272
1170.5000, -25.200
1170.6000, -25.139
1170.7000, -25.046
1170.8000, -24.921
1170.9000, -24.820
1171.0000, -24.702
1171.1000, -24.592
1171.2000, -24.521
1171.3000, -24.436
1171.4000, -24.275
1171.5000, -24.206
1171.6000, -24.104
1171.7000, -23.983
1171.8000, -23.841
1171.9000, -23.718
1172.0000, -23.580
1172.1000, -23.604
1172.2000, -23.416
1172.3000, -23.349
1172.4000, -23.290
1172.5000, -23.152
1172.6000, -23.098
1172.7000, -22.922
1172.8000, -22.783
1172.9000, -22.770
1173.0000, -22.582
1173.1000, -22.503
1173.2000, -22.350
1173.3000, -22.241
1173.4000, -22.198
1173.5000, -22.062
1173.6000, -21.981
1173.7000, -21.826
1173.8000, -21.725
1173.9000, -21.625
1174.0000, -21.522
1174.1000, -21.445
1174.2000, -21.328
1174.3000, -21.200
1174.4000, -21.137
1174.5000, -20.970
1174.6000, -20.901
1174.7000, -20.747
1174.8000, -20.698
1174.9000, -20.543
1175.0000, -20.431
1175.1000, -20.369
1175.2000, -20.211
1175.3000, -20.144
1175.4000, -20.020
1175.5000, -20.033
1175.6000, -19.851
1175.7000, -19.791
1175.8000, -19.686
1175.9000, -19.620
1176.0000, -19.469
1176.1000, -19.397
1176.2000, -19.298
1176.3000, -19.225
1176.4000, -19.124
1176.5000, -18.998
1176.6000, -18.945
1176.7000, -18.883
1176.8000, -18.768
1176.9000, -18.722
1177.0000, -18.675
1177.1000, -18.603
1177.2000, -18.524
1177.3000, -18.421
1177.4000, -18.326
1177.5000, -18.224
1177.6000, -18.207
1177.7000, -18.164
1177.8000, -18.078
1177.9000, -18.049
1178.0000, -17.968
1178.1000, -17.901
1178.2000, -17.852
1178.3000, -17.789
1178.4000, -17.789
1178.5000, -17.725
1178.6000, -17.655
1178.7000, -17.573
1178.8000, -17.609
1178.9000, -17.549
1179.0000, -17.528
1179.1000, -17.490
1179.2000, -17.480
1179.3000, -17.445
1179.4000, -17.423
1179.5000, -17.408
1179.6000, -17.332
1179.7000, -17.392
1179.8000, -17.377
1179.9000, -17.331
1180.0000, -17.353
1180.1000, -17.343
1180.2000, -17.302
1180.3000, -17.328
1180.4000, -17.303
1180.5000, -17.323
1180.6000, -17.294
1180.7000, -17.315
1180.8000, -17.423
1180.9000, -17.400
1181.0000, -17.379
1181.1000, -17.437
1181.2000, -17.439
1181.3000, -17.457
1181.4000, -17.531
1181.5000, -17.557
1181.6000, -17.541
1181.7000, -17.561
1181.8000, -17.629
1181.9000, -17.738
1182.0000, -17.757
1182.1000, -17.784
1182.2000, -17.842
1182.3000, -17.882
1182.4000, -17.950
1182.5000, -18.034
1182.6000, -18.108
1182.7000, -18.127
1182.8000, -18.192
1182.9000, -18.252
1183.0000, -18.288
1183.1000, -18.383
1183.2000, -18.500
1183.3000, -18.540
1183.4000, -18.600
1183.5000, -18.662
1183.6000, -18.720
1183.7000, -18.863
1183.8000, -18.908
1183.9000, -19.046
1184.0000, -19.014
1184.1000, -19.135
1184.2000, -19.216
1184.3000, -19.337
1184.4000, -19.410
1184.5000, -19.450
1184.6000, -19.512
1184.7000, -19.608
1184.8000, -19.721
1184.9000, -19.814
1185.0000, -19.936
1185.1000, -19.941
1185.2000, -20.043
1185.3000, -20.131
1185.4000, -20.309
1185.5000, -20.333
1185.6000, -20.410
1185.7000, -20.513
1185.8000, -20.544
1185.9000, -20.616
1186.0000, -20.728
1186.1000, -20.831
1186.2000, -20.889
1186.3000, -21.005
1186.4000, -21.063
1186.5000, -21.095
1186.6000, -21.253
1186.7000, -21.265
1186.8000, -21.420
1186.9000, -21.466
1187.0000, -21.559
1187.1000, -21.671
1187.2000, -21.766
1187.3000, -21.808
1187.4000, -21.829
1187.5000, -21.909
1187.6000, -22.005
1187.7000, -22.141
1187.8000, -22.192
1187.9000, -22.274
1188.0000, -22.310
1188.1000, -22.407
1188.2000, -22.492
1188.3000, -22.515
1188.4000, -22.598
1188.5000, -22.721
1188.6000, -22.738
1188.7000, -22.785
1188.8000, -22.815
1188.9000, -22.925
1189.0000, -22.936
1189.1000, -23.063
1189.2000, -23.142
1189.3000, -23.170
1189.4000, -23.227
1189.5000, -23.278
1189.6000, -23.379
1189.7000, -23.355
1189.8000, -23.429
1189.9000, -23.501
1190.0000, -23.521
1190.1000, -23.484
1190.2000, -23.647
1190.3000, -23.671
1190.4000, -23.598
1190.5000, -23.794
1190.6000, -23.799
1190.7000, -23.752
1190.8000, -23.776
1190.9000, -23.833
1191.0000, -23.845
1191.1000, -23.922
1191.2000, -24.001
1191.3000, -23.998
1191.4000, -24.049
1191.5000, -24.097
1191.6000, -24.093
1191.7000, -24.172
1191.8000, -24.114
1191.9000, -24.215
1192.0000, -24.233
1192.1000, -24.296
1192.2000, -24.300
1192.3000, -24.310
1192.4000, -24.369
1192.5000, -24.411
1192.6000, -24.358
1192.7000, -24.398
1192.8000, -24.499
1192.9000, -24.531
1193.0000, -24.621
1193.1000, -24.559
1193.2000, -24.582
1193.3000, -24.686
1193.4000, -24.622
1193.5000, -24.584
1193.6000, -24.627
1193.7000, -24.708
1193.8000, -24.766
1193.9000, -24.729
1194.0000, -24.674
1194.1000, -24.842
1194.2000, -24.923
1194.3000, -24.897
1194.4000, -24.931
1194.5000, -24.959
1194.6000, -24.931
1194.7000, -25.006
1194.8000, -24.952
1194.9000, -25.145
1195.0000, -25.124
1195.1000, -25.101
1195.2000, -25.161
1195.3000, -25.261
1195.4000, -25.255
1195.5000, -25.238
1195.6000, -25.396
1195.7000, -25.439
1195.8000, -25.501
1195.9000, -25.511
1196.0000, -25.408
1196.1000, -25.517
1196.2000, -25.682
1196.3000, -25.613
1196.4000, -25.563
1196.5000, -25.599
1196.6000, -25.605
1196.7000, -25.819
1196.8000, -25.739
1196.9000, -25.755
1197.0000, -25.904
1197.1000, -25.756
1197.2000, -26.107
1197.3000, -25.855
1197.4000, -26.032
1197.5000, -26.125
1197.6000, -26.109
1197.7000, -26.180
1197.8000, -26.196
1197.9000, -26.291
1198.0000, -26.243
1198.1000, -26.418
1198.2000, -26.418
1198.3000, -26.409
1198.4000, -26.534
1198.5000, -26.597
1198.6000, -26.485
1198.7000, -26.777
1198.8000, -26.653
1198.9000, -26.642
1199.0000, -26.786
1199.1000, -26.896
1199.2000, -26.821
1199.3000, -26.907
1199.4000, -26.963
1199.5000, -27.082
1199.6000, -27.222
1199.7000, -27.186
1199.8000, -27.082
1199.9000, -27.276
1200.0000, -27.260
1200.1000, -27.208
1200.2000, -27.373
1200.3000, -27.590
1200.4000, -27.500
1200.5000, -27.516
1200.6000, -27.655
1200.7000, -27.718
1200.8000, -27.830
1200.9000, -27.902
1201.0000, -27.901
1201.1000, -27.870
1201.2000, -28.089
1201.3000, -27.954
1201.4000, -27.958
1201.5000, -28.071
1201.6000, -28.385
1201.7000, -28.334
1201.8000, -28.417
1201.9000, -28.441
1202.0000, -28.362
1202.1000, -28.353
1202.2000, -28.685
1202.3000, -28.743
1202.4000, -28.806
1202.5000, -28.885
1202.6000, -28.939
1202.7000, -28.796
1202.8000, -29.042
1202.9000, -29.045
1203.0000, -29.115
1203.1000, -29.197
1203.2000, -29.177
1203.3000, -29.335
1203.4000, -29.555
1203.5000, -29.212
1203.6000, -29.371
1203.7000, -29.513
1203.8000, -29.616
1203.9000, -29.691
1204.0000, -29.856
1204.1000, -29.838
1204.2000, -30.043
1204.3000, -29.976
1204.4000, -30.134
1204.5000, -30.290
1204.6000, -30.120
1204.7000, -30.453
1204.8000, -30.377
1204.9000, -30.629
1205.0000, -30.616
1205.1000, -30.911
1205.2000, -30.661
1205.3000, -30.856
1205.4000, -30.819
1205.5000, -30.944
1205.6000, -31.309
1205.7000, -31.239
1205.8000, -31.195
1205.9000, -31.279
1206.0000, -31.489
1206.1000, -31.501
1206.2000, -31.910
1206.3000, -31.649
1206.4000, -31.730
1206.5000, -31.926
1206.6000, -31.693
1206.7000, -32.139
1206.8000, -32.099
1206.9000, -32.080
1207.0000, -32.287
1207.1000, -32.179
1207.2000, -32.393
1207.3000, -32.359
1207.4000, -32.465
1207.5000, -32.512
1207.6000, -32.780
1207.7000, -33.007
1207.8000, -32.634
1207.9000, -32.893
1208.0000, -32.978
1208.1000, -33.058
1208.2000, -32.986
1208.3000, -33.238
1208.4000, -33.437
1208.5000, -33.575
1208.6000, -33.856
1208.7000, -33.476
1208.8000, -33.763
1208.9000, -33.696
1209.0000, -34.154
1209.1000, -33.807
1209.2000, -34.137
1209.3000, -34.352
1209.4000, -34.118
1209.5000, -34.290
1209.6000, -34.351
1209.7000, -34.557
1209.8000, -34.564
1209.9000, -34.766
1210.0000, -34.648
1210.1000, -34.898
1210.2000, -35.088
1210.3000, -34.678
1210.4000, -35.451
1210.5000, -35.136
1210.6000, -35.224
1210.7000, -35.362
1210.8000, -35.147
1210.9000, -35.543
1211.0000, -35.706
1211.1000, -35.680
1211.2000, -35.590
1211.3000, -35.741
1211.4000, -36.048
1211.5000, -36.436
1211.6000, -36.171
1211.7000, -36.064
1211.8000, -36.020
1211.9000, -36.242
1212.0000, -36.241
1212.1000, -36.280
1212.2000, -36.475
1212.3000, -36.520
1212.4000, -36.834
1212.5000, -36.754
1212.6000, -36.940
1212.7000, -36.975
1212.8000, -37.046
1212.9000, -37.194
1213.0000, -37.442
1213.1000, -37.332
1213.2000, -37.303
1213.3000, -37.460
1213.4000, -37.284
1213.5000, -37.366
1213.6000, -37.558
1213.7000, -37.611
1213.8000, -37.757
1213.9000, -37.939
1214.0000, -37.523
1214.1000, -38.213
1214.2000, -37.808
1214.3000, -38.232
1214.4000, -38.249
1214.5000, -38.283
1214.6000, -38.446
1214.7000, -38.395
1214.8000, -38.333
1214.9000, -38.331
1215.0000, -38.579
1215.1000, -38.548
1215.2000, -38.571
1215.3000, -38.497
1215.4000, -38.444
1215.5000, -38.447
1215.6000, -38.814
1215.7000, -38.638
1215.8000, -38.552
1215.9000, -38.692
1216.0000, -38.594
1216.1000, -38.725
1216.2000, -38.671
1216.3000, -38.516
1216.4000, -38.753
1216.5000, -38.874
1216.6000, -38.819
1216.7000, -38.897
1216.8000, -38.779
1216.9000, -38.902
1217.0000, -38.760
1217.1000, -38.865
1217.2000, -39.011
1217.3000, -38.945
1217.4000, -38.921
1217.5000, -38.888
1217.6000, -39.025
1217.7000, -38.994
1217.8000, -38.820
1217.9000, -39.013
1218.0000, -39.028
1218.1000, -39.043
1218.2000, -38.962
1218.3000, -38.894
1218.4000, -38.930
1218.5000, -38.939
1218.6000, -38.842
1218.7000, -38.716
1218.8000, -38.698
1218.9000, -38.588
1219.0000, -38.773
1219.1000, -38.730
1219.2000, -38.580
1219.3000, -38.579
1219.4000, -38.567
1219.5000, -38.563
1219.6000, -38.520
1219.7000, -38.566
1219.8000, -38.293
1219.9000, -38.366
1220.0000, -38.299
1220.1000, -38.223
1220.2000, -38.234
1220.3000, -38.181
1220.4000, -38.111
1220.5000, -38.049
1220.6000, -37.981
1220.7000, -37.836
1220.8000, -37.888
1220.9000, -37.757
1221.0000, -37.728
1221.1000, -37.581
1221.2000, -37.529
1221.3000, -37.599
1221.4000, -37.351
1221.5000, -37.411
1221.6000, -37.318
1221.7000, -37.332
1221.8000, -37.215
1221.9000, -37.078
1222.0000, -37.154
1222.1000, -36.995
1222.2000, -36.945
1222.3000, -36.872
1222.4000, -36.724
1222.5000, -36.720
1222.6000, -36.677
1222.7000, -36.516
1222.8000, -36.491
1222.9000, -36.350
1223.0000, -36.330
1223.1000, -36.280
1223.2000, -36.134
1223.3000, -36.058
1223.4000, -35.839
1223.5000, -36.041
1223.6000, -35.765
1223.7000, -35.668
1223.8000, -35.640
1223.9000, -35.519
1224.0000, -35.314
1224.1000, -35.332
1224.2000, -35.344
1224.3000, -35.145
1224.4000, -35.214
1224.5000, -34.915
1224.6000, -34.945
1224.7000, -34.795
1224.8000, -34.595
1224.9000, -34.625
1225.0000, -34.444
1225.1000, -34.432
1225.2000, -34.289
1225.3000, -34.191
1225.4000, -34.202
1225.5000, -33.961
1225.6000, -34.037
1225.7000, -33.951
1225.8000, -33.782
1225.9000, -33.677
1226.0000, -33.624
1226.1000, -33.401
1226.2000, -33.301
1226.3000, -33.290
1226.4000, -33.160
1226.5000, -33.030
1226.6000, -32.975
1226.7000, -32.884
1226.8000, -32.826
1226.9000, -32.656
1227.0000, -32.776
1227.1000, -32.419
1227.2000, -32.384
1227.3000, -32.183
1227.4000, -32.026
1227.5000, -32.063
1227.6000, -31.966
1227.7000, -31.815
1227.8000, -31.772
1227.9000, -31.663
1228.0000, -31.448
1228.1000, -31.437
1228.2000, -31.410
1228.3000, -31.238
1228.4000, -31.008
1228.5000, -31.046
1228.6000, -30.929
1228.7000, -30.827
1228.8000, -30.806
1228.9000, -30.540
1229.0000, -30.477
1229.1000, -30.487
1229.2000, -30.458
1229.3000, -30.381
1229.4000, -30.187
1229.5000, -30.071
1229.6000, -29.879
1229.7000, -29.796
1229.8000, -29.707
1229.9000, -29.479
1230.0000, -29.569
1230.1000, -29.338
1230.2000, -29.163
1230.3000, -29.089
1230.4000, -29.086
1230.5000, -28.925
1230.6000, -28.910
1230.7000, -28.745
1230.8000, -28.656
1230.9000, -28.520
1231.0000, -28.514
1231.1000, -28.200
1231.2000, -28.366
1231.3000, -28.168
1231.4000, -28.114
1231.5000, -27.995
1231.6000, -27.663
1231.7000, -27.664
1231.8000, -27.853
1231.9000, -27.621
1232.0000, -27.461
1232.1000, -27.403
1232.2000, -27.363
1232.3000, -27.175
1232.4000, -27.089
1232.5000, -27.085
1232.6000, -26.923
1232.7000, -26.959
1232.8000, -26.806
1232.9000, -26.704
1233.0000, -26.637
1233.1000, -26.662
1233.2000, -26.582
1233.3000, -26.372
1233.4000, -26.329
1233.5000, -26.394
1233.6000, -26.034
1233.7000, -26.060
1233.8000, -25.925
1233.9000, -25.853
1234.0000, -25.882
1234.1000, -25.691
1234.2000, -25.564
1234.3000, -25.534
1234.4000, -25.385
1234.5000, -25.350
1234.6000, -25.298
1234.7000, -25.257
1234.8000, -25.076
1234.9000, -25.105
1235.0000, -25.055
1235.1000, -25.015
1235.2000, -24.952
1235.3000, -24.777
1235.4000, -24.663
1235.5000, -24.790
1235.6000, -24.852
1235.7000, -24.660
1235.8000, -24.507
1235.9000, -24.337
1236.0000, -24.321
1236.1000, -24.329
1236.2000, -24.288
1236.3000, -24.235
1236.4000, -24.089
1236.5000, -24.109
1236.6000, -24.074
1236.7000, -24.078
1236.8000, -23.956
1236.9000, -23.889
1237.0000, -23.854
1237.1000, -23.696
1237.2000, -23.659
1237.3000, -23.536
1237.4000, -23.427
1237.5000, -23.407
1237.6000, -23.463
1237.7000, -23.408
1237.8000, -23.416
1237.9000, -23.275
1238.0000, -23.120
1238.1000, -23.143
1238.2000, -23.292
1238.3000, -23.141
1238.4000, -23.112
1238.5000, -22.986
1238.6000, -22.951
1238.7000, -22.739
1238.8000, -22.860
1238.9000, -22.845
1239.0000, -22.858
1239.1000, -22.808
1239.2000, -22.804
1239.3000, -22.792
1239.4000, -22.698
1239.5000, -22.781
1239.6000, -22.630
1239.7000, -22.725
1239.8000, -22.508
1239.9000, -22.584
1240.0000, -22.616
1240.1000, -22.504
1240.2000, -22.471
1240.3000, -22.525
1240.4000, -22.572
1240.5000, -22.497
1240.6000, -22.320
1240.7000, -22.360
1240.8000, -22.299
1240.9000, -22.364
1241.0000, -22.421
1241.1000, -22.335
1241.2000, -22.374
1241.3000, -22.245
1241.4000, -22.215
1241.5000, -22.232
1241.6000, -22.237
1241.7000, -22.316
1241.8000, -22.130
1241.9000, -22.258
1242.0000, -22.127
1242.1000, -22.200
1242.2000, -22.166
1242.3000, -22.260
1242.4000, -22.241
1242.5000, -22.225
1242.6000, -22.221
1242.7000, -22.233
1242.8000, -22.182
1242.9000, -22.303
1243.0000, -22.259
1243.1000, -22.267
1243.2000, -22.308
1243.3000, -22.301
1243.4000, -22.385
1243.5000, -22.273
1243.6000, -22.165
1243.7000, -22.339
1243.8000, -22.412
1243.9000, -22.444
1244.0000, -22.412
1244.1000, -22.371
1244.2000, -22.420
1244.3000, -22.468
1244.4000, -22.463
1244.5000, -22.546
1244.6000, -22.505
1244.7000, -22.558
1244.8000, -22.529
1244.9000, -22.657
1245.0000, -22.648
1245.1000, -22.772
1245.2000, -22.725
1245.3000, -22.739
1245.4000, -22.719
1245.5000, -22.857
1245.6000, -22.827
1245.7000, -22.838
1245.8000, -22.846
1245.9000, -22.826
1246.0000, -22.933
1246.1000, -23.124
1246.2000, -23.012
1246.3000, -23.040
1246.4000, -23.077
1246.5000, -23.190
1246.6000, -23.114
1246.7000, -23.379
1246.8000, -23.300
1246.9000, -23.328
1247.0000, -23.473
1247.1000, -23.449
1247.2000, -23.491
1247.3000, -23.581
1247.4000, -23.536
1247.5000, -23.588
1247.6000, -23.626
1247.7000, -23.779
1247.8000, -23.809
1247.9000, -23.854
1248.0000, -23.944
1248.1000, -23.995
1248.2000, -24.002
1248.3000, -23.998
1248.4000, -24.255
1248.5000, -24.183
1248.6000, -24.346
1248.7000, -24.308
1248.8000, -24.404
1248.9000, -24.503
1249.0000, -24.645
1249.1000, -24.748
1249.2000, -24.753
1249.3000, -24.797
1249.4000, -24.945
1249.5000, -25.069
1249.6000, -25.077
1249.7000, -25.034
1249.8000, -25.043
1249.9000, -25.308
1250.0000, -25.263
1250.1000, -25.353
1250.2000, -25.429
1250.3000, -25.515
1250.4000, -25.606
1250.5000, -25.786
1250.6000, -25.904
1250.7000, -25.807
1250.8000, -25.991
1250.9000, -26.187
1251.0000, -26.235
1251.1000, -26.214
1251.2000, -26.327
1251.3000, -26.495
1251.4000, -26.419
1251.5000, -26.535
1251.6000, -26.713
1251.7000, -26.727
1251.8000, -26.826
1251.9000, -26.896
1252.0000, -26.986
1252.1000, -27.048
1252.2000, -27.036
1252.3000, -27.230
1252.4000, -27.410
1252.5000, -27.473
1252.6000, -27.568
1252.7000, -27.640
1252.8000, -27.540
1252.9000, -27.727
1253.0000, -27.913
1253.1000, -27.954
1253.2000, -27.904
1253.3000, -28.002
1253.4000, -28.105
1253.5000, -28.141
1253.6000, -28.428
1253.7000, -28.397
1253.8000, -28.545
1253.9000, -28.592
1254.0000, -28.597
1254.1000, -28.709
1254.2000, -28.880
1254.3000, -28.879
1254.4000, -29.059
1254.5000, -29.069
1254.6000, -29.078
1254.7000, -29.139
1254.8000, -29.387
1254.9000, -29.263
1255.0000, -29.406
1255.1000, -29.458
1255.2000, -29.490
1255.3000, -29.492
1255.4000, -29.579
1255.5000, -29.704
1255.6000, -29.762
1255.7000, -29.711
1255.8000, -29.875
1255.9000, -29.917
1256.0000, -29.988
1256.1000, -30.064
1256.2000, -30.107
1256.3000, -30.281
1256.4000, -30.290
1256.5000, -30.393
1256.6000, -30.416
1256.7000, -30.410
1256.8000, -30.567
1256.9000, -30.602
1257.0000, -30.634
1257.1000, -30.610
1257.2000, -30.706
1257.3000, -30.710
1257.4000, -30.806
1257.5000, -30.941
1257.6000, -30.872
1257.7000, -31.013
1257.8000, -31.043
1257.9000, -31.099
1258.0000, -31.344
1258.1000, -31.282
1258.2000, -31.419
1258.3000, -31.335
1258.4000, -31.325
1258.5000, -31.486
1258.6000, -31.548
1258.7000, -31.570
1258.8000, -31.679
1258.9000, -31.662
1259.0000, -31.652
1259.1000, -31.754
1259.2000, -31.722
1259.3000, -31.923
1259.4000, -31.926
1259.5000, -31.912
1259.6000, -32.007
1259.7000, -32.252
1259.8000, -32.186
1259.9000, -32.232
1260.0000, -32.263
1260.1000, -32.351
1260.2000, -32.530
1260.3000, -32.581
1260.4000, -32.468
1260.5000, -32.474
1260.6000, -32.693
1260.7000, -32.698
1260.8000, -32.780
1260.9000, -32.787
1261.0000, -32.815
1261.1000, -32.991
1261.2000, -33.056
1261.3000, -33.069
1261.4000, -33.257
1261.5000, -33.208
1261.6000, -33.280
1261.7000, -33.173
1261.8000, -33.492
1261.9000, -33.456
1262.0000, -33.521
1262.1000, -33.406
1262.2000, -33.707
1262.3000, -33.675
1262.4000, -33.641
1262.5000, -33.913
1262.6000, -33.803
1262.7000, -33.788
1262.8000, -33.982
1262.9000, -34.111
1263.0000, -34.054
1263.1000, -34.113
1263.2000, -34.170
1263.3000, -34.229
1263.4000, -34.211
1263.5000, -34.209
1263.6000, -34.246
1263.7000, -34.380
1263.8000, -34.483
1263.9000, -34.459
1264.0000, -34.722
1264.1000, -34.691
1264.2000, -34.656
1264.3000, -34.746
1264.4000, -34.915
1264.5000, -34.939
1264.6000, -34.906
1264.7000, -35.144
1264.8000, -35.138
1264.9000, -35.226
1265.0000, -35.221
1265.1000, -35.347
1265.2000, -35.294
1265.3000, -35.443
1265.4000, -35.679
1265.5000, -35.501
1265.6000, -35.705
1265.7000, -35.760
1265.8000, -35.820
1265.9000, -35.836
1266.0000, -35.983
1266.1000, -35.834
1266.2000, -35.956
1266.3000, -35.913
1266.4000, -36.193
1266.5000, -36.096
1266.6000, -36.258
1266.7000, -36.281
1266.8000, -36.310
1266.9000, -36.502
1267.0000, -36.463
1267.1000, -36.531
1267.2000, -36.583
1267.3000, -36.534
1267.4000, -36.611
1267.5000, -36.753
1267.6000, -36.697
1267.7000, -36.703
1267.8000, -36.950
1267.9000, -36.916
1268.0000, -37.090
1268.1000, -37.112
1268.2000, -37.095
1268.3000, -37.158
1268.4000, -37.210
1268.5000, -37.518
1268.6000, -37.216
1268.7000, -37.297
1268.8000, -37.493
1268.9000, -37.541
1269.0000, -37.494
1269.1000, -37.814
1269.2000, -37.820
1269.3000, -37.842
1269.4000, -37.875
1269.5000, -37.968
1269.6000, -37.971
1269.7000, -37.977
1269.8000, -38.065
1269.9000, -38.015
1270.0000, -38.243
1270.1000, -38.090
1270.2000, -38.353
1270.3000, -38.222
1270.4000, -38.536
1270.5000, -38.522
1270.6000, -38.436
1270.7000, -38.539
1270.8000, -38.524
1270.9000, -38.523
1271.0000, -38.685
1271.1000, -38.567
1271.2000, -38.835
1271.3000, -38.811
1271.4000, -38.807
1271.5000, -39.073
1271.6000, -39.050
1271.7000, -38.953
1271.8000, -39.033
1271.9000, -38.941
1272.0000, -39.150
1272.1000, -39.263
1272.2000, -39.397
1272.3000, -39.360
1272.4000, -39.253
1272.5000, -39.515
1272.6000, -39.421
1272.7000, -39.555
1272.8000, -39.556
1272.9000, -39.558
1273.0000, -39.864
1273.1000, -39.805
1273.2000, -39.851
1273.3000, -39.774
1273.4000, -39.895
1273.5000, -40.072
1273.6000, -39.861
1273.7000, -40.148
1273.8000, -40.160
1273.9000, -40.253
1274.0000, -40.121
1274.1000, -40.313
1274.2000, -40.410
1274.3000, -40.362
1274.4000, -40.503
1274.5000, -40.431
1274.6000, -40.521
1274.7000, -40.517
1274.8000, -40.685
1274.9000, -40.775
1275.0000, -40.738
1275.1000, -40.676
1275.2000, -40.745
1275.3000, -40.725
1275.4000, -40.656
1275.5000, -40.759
1275.6000, -41.013
1275.7000, -40.982
1275.8000, -40.944
1275.9000, -41.090
1276.0000, -41.190
1276.1000, -41.093
1276.2000, -41.302
1276.3000, -41.261
1276.4000, -41.485
1276.5000, -41.473
1276.6000, -41.433
1276.7000, -41.478
1276.8000, -41.611
1276.9000, -41.435
1277.0000, -41.487
1277.1000, -41.538
1277.2000, -41.532
1277.3000, -41.602
1277.4000, -41.638
1277.5000, -41.917
1277.6000, -41.783
1277.7000, -41.830
1277.8000, -41.863
1277.9000, -41.877
1278.0000, -41.861
1278.1000, -42.000
1278.2000, -41.993
1278.3000, -42.029
1278.4000, -42.034
1278.5000, -42.120
1278.6000, -41.984
1278.7000, -42.166
1278.8000, -42.151
1278.9000, -42.128
1279.0000, -42.107
1279.1000, -42.146
1279.2000, -42.243
1279.3000, -42.252
1279.4000, -42.201
1279.5000, -42.222
1279.6000, -42.362
1279.7000, -42.289
1279.8000, -42.388
1279.9000, -42.368
1280.0000, -42.297
1280.1000, -42.335
1280.2000, -42.371
1280.3000, -42.259
1280.4000, -42.469
1280.5000, -42.413
1280.6000, -42.250
1280.7000, -42.496
1280.8000, -42.361
1280.9000, -42.437
1281.0000, -42.383
1281.1000, -42.484
1281.2000, -42.581
1281.3000, -42.546
1281.4000, -42.460
1281.5000, -42.481
1281.6000, -42.529
1281.7000, -42.510
1281.8000, -42.624
1281.9000, -42.533
1282.0000, -42.540
1282.1000, -42.434
1282.2000, -42.576
1282.3000, -42.451
1282.4000, -42.453
1282.5000, -42.542
1282.6000, -42.442
1282.7000, -42.544
1282.8000, -42.501
1282.9000, -42.465
1283.0000, -42.375
1283.1000, -42.403
1283.2000, -42.447
1283.3000, -42.384
1283.4000, -42.353
1283.5000, -42.298
1283.6000, -42.333
1283.7000, -42.363
1283.8000, -42.240
1283.9000, -42.189
1284.0000, -42.279
1284.1000, -42.204
1284.2000, -42.205
1284.3000, -42.151
1284.4000, -42.243
1284.5000, -42.145
1284.6000, -42.266
1284.7000, -42.165
1284.8000, -42.096
1284.9000, -42.068
1285.0000, -41.978
1285.1000, -41.949
1285.2000, -41.829
1285.3000, -41.921
1285.4000, -41.961
1285.5000, -41.896
1285.6000, -41.949
1285.7000, -41.868
1285.8000, -41.822
1285.9000, -41.940
1286.0000, -41.652
1286.1000, -41.684
1286.2000, -41.591
1286.3000, -41.512
1286.4000, -41.514
1286.5000, -41.676
1286.6000, -41.615
1286.7000, -41.632
1286.8000, -41.356
1286.9000, -41.226
1287.0000, -41.372
1287.1000, -41.257
1287.2000, -41.167
1287.3000, -41.234
1287.4000, -41.154
1287.5000, -41.098
1287.6000, -41.165
1287.7000, -41.190
1287.8000, -41.106
1287.9000, -40.881
1288.0000, -40.801
1288.1000, -40.900
1288.2000, -40.769
1288.3000, -40.713
1288.4000, -40.654
1288.5000, -40.542
1288.6000, -40.450
1288.7000, -40.623
1288.8000, -40.392
1288.9000, -40.470
1289.0000, -40.305
1289.1000, -40.358
1289.2000, -40.397
1289.3000, -40.152
1289.4000, -40.161
1289.5000, -40.225
1289.6000, -40.103
1289.7000, -39.749
1289.8000, -39.930
1289.9000, -39.793
1290.0000, -39.829
1290.1000, -39.835
1290.2000, -39.701
1290.3000, -39.581
1290.4000, -39.624
1290.5000, -39.679
1290.6000, -39.552
1290.7000, -39.563
1290.8000, -39.477
1290.9000, -39.360
1291.0000, -39.207
1291.1000, -39.223
1291.2000, -39.241
1291.3000, -38.918
1291.4000, -38.977
1291.5000, -38.898
1291.6000, -38.909
1291.7000, -38.874
1291.8000, -38.977
1291.9000, -38.830
1292.0000, -38.795
1292.1000, -38.633
1292.2000, -38.617
1292.3000, -38.552
1292.4000, -38.660
1292.5000, -38.575
1292.6000, -38.414
1292.7000, -38.280
1292.8000, -38.230
1292.9000, -38.103
1293.0000, -37.970
1293.1000, -38.093
1293.2000, -38.060
1293.3000, -37.885
1293.4000, -37.949
1293.5000, -37.935
1293.6000, -37.996
1293.7000, -37.473
1293.8000, -37.534
1293.9000, -37.528
1294.0000, -37.646
1294.1000, -37.497
1294.2000, -37.223
1294.3000, -37.364
1294.4000, -37.164
1294.5000, -37.155
1294.6000, -37.344
1294.7000, -36.775
1294.8000, -36.896
1294.9000, -37.163
1295.0000, -36.470
1295.1000, -36.901
1295.2000, -36.555
1295.3000, -36.542
1295.4000, -36.597
1295.5000, -36.513
1295.6000, -36.607
1295.7000, -36.341
1295.8000, -36.559
1295.9000, -36.370
1296.0000, -36.271
1296.1000, -36.163
1296.2000, -35.961
1296.3000, -36.005
1296.4000, -35.875
1296.5000, -35.730
1296.6000, -35.761
1296.7000, -35.723
1296.8000, -35.672
1296.9000, -35.491
1297.0000, -35.279
1297.1000, -35.271
1297.2000, -35.390
1297.3000, -35.509
1297.4000, -35.282
1297.5000, -34.868
1297.6000, -35.056
1297.7000, -34.890
1297.8000, -34.958
1297.9000, -35.023
1298.0000, -34.613
1298.1000, -34.493
1298.2000, -34.829
1298.3000, -34.824
1298.4000, -34.244
1298.5000, -34.467
1298.6000, -34.355
1298.7000, -34.419
1298.8000, -34.317
1298.9000, -34.257
1299.0000, -34.256
1299.1000, -34.263
1299.2000, -34.058
1299.3000, -34.108
1299.4000, -33.814
1299.5000, -34.040
1299.6000, -33.900
1299.7000, -33.714
1299.8000, -33.413
1299.9000, -33.601
1300.0000, -33.436
1300.1000, -33.102
1300.2000, -33.679
1300.3000, -33.361
1300.4000, -33.134
1300.5000, -33.301
1300.6000, -33.122
1300.7000, -32.952
1300.8000, -32.812
1300.9000, -32.825
1301.0000, -32.665
1301.1000, -32.969
1301.2000, -32.411
1301.3000, -32.469
1301.4000, -32.451
1301.5000, -32.586
1301.6000, -32.271
1301.7000, -32.398
1301.8000, -32.332
1301.9000, -32.295
1302.0000, -32.214
1302.1000, -32.061
1302.2000, -32.067
1302.3000, -31.820
1302.4000, -31.917
1302.5000, -31.769
1302.6000, -31.550
1302.7000, -31.984
1302.8000, -31.723
1302.9000, -31.570
1303.0000, -31.628
1303.1000, -31.569
1303.2000, -31.390
1303.3000, -31.544
1303.4000, -31.448
1303.5000, -31.419
1303.6000, -31.231
1303.7000, -30.932
1303.8000, -30.754
1303.9000, -30.865
1304.0000, -30.778
1304.1000, -30.708
1304.2000, -30.919
1304.3000, -30.728
1304.4000, -30.450
1304.5000, -30.789
1304.6000, -30.593
1304.7000, -30.548
1304.8000, -30.488
1304.9000, -30.126
1305.0000, -30.351
1305.1000, -30.365
1305.2000, -29.986
1305.3000, -30.056
1305.4000, -30.114
1305.5000, -30.193
1305.6000, -30.174
1305.7000, -29.761
1305.8000, -29.865
1305.9000, -30.160
1306.0000, -29.859
1306.1000, -30.021
1306.2000, -29.756
1306.3000, -30.015
1306.4000, -29.654
1306.5000, -29.897
1306.6000, -29.563
1306.7000, -29.857
1306.8000, -29.763
1306.9000, -29.873
1307.0000, -29.767
1307.1000, -29.732
1307.2000, -29.867
1307.3000, -29.495
1307.4000, -29.732
1307.5000, -30.024
1307.6000, -29.878
1307.7000, -29.863
1307.8000, -29.811
1307.9000, -29.919
1308.0000, -29.782
1308.1000, -29.731
1308.2000, -29.923
1308.3000, -29.863
1308.4000, -29.974
1308.5000, -30.179
1308.6000, -30.043
1308.7000, -29.858
1308.8000, -30.172
1308.9000, -29.966
1309.0000, -29.989
1309.1000, -30.189
1309.2000, -29.947
1309.3000, -30.386
1309.4000, -29.877
1309.5000, -30.491
1309.6000, -30.381
1309.7000, -30.454
1309.8000, -30.743
1309.9000, -30.657
1310.0000, -30.691
1310.1000, -30.529
1310.2000, -30.730
1310.3000, -30.987
1310.4000, -31.038
1310.5000, -30.881
1310.6000, -31.176
1310.7000, -31.134
1310.8000, -31.080
1310.9000, -31.324
1311.0000, -31.218
1311.1000, -31.401
1311.2000, -31.627
1311.3000, -31.610
1311.4000, -31.487
1311.5000, -31.678
1311.6000, -31.576
1311.7000, -31.487
1311.8000, -31.989
1311.9000, -31.620
1312.0000, -32.123
1312.1000, -31.938
1312.2000, -32.097
1312.3000, -31.945
1312.4000, -32.042
1312.5000, -32.252
1312.6000, -32.104
1312.7000, -32.351
1312.8000, -32.371
1312.9000, -32.399
1313.0000, -32.627
1313.1000, -32.787
1313.2000, -32.694
1313.3000, -32.731
1313.4000, -32.785
1313.5000, -32.748
1313.6000, -32.916
1313.7000, -33.040
1313.8000, -33.047
1313.9000, -33.435
1314.0000, -33.446
1314.1000, -33.338
1314.2000, -33.405
1314.3000, -33.309
1314.4000, -33.478
1314.5000, -33.446
1314.6000, -33.870
1314.7000, -33.712
1314.8000, -33.771
1314.9000, -33.999
1315.0000, -33.915
1315.1000, -33.713
1315.2000, -34.166
1315.3000, -33.942
1315.4000, -33.842
1315.5000, -34.019
1315.6000, -34.397
1315.7000, -34.460
1315.8000, -34.429
1315.9000, -34.529
1316.0000, -34.527
1316.1000, -34.403
1316.2000, -34.560
1316.3000, -34.719
1316.4000, -34.849
1316.5000, -34.961
1316.6000, -34.632
1316.7000, -34.944
1316.8000, -34.900
1316.9000, -35.224
1317.0000, -34.987
1317.1000, -35.294
1317.2000, -35.643
1317.3000, -35.488
1317.4000, -35.441
1317.5000, -35.371
1317.6000, -35.502
1317.7000, -35.543
1317.8000, -35.746
1317.9000, -35.683
1318.0000, -35.680
1318.1000, -36.101
1318.2000, -36.221
1318.3000, -35.983
1318.4000, -36.159
1318.5000, -36.019
1318.6000, -36.305
1318.7000, -36.287
1318.8000, -36.445
1318.9000, -36.271
1319.0000, -36.630
1319.1000, -36.669
1319.2000, -36.391
1319.3000, -36.659
1319.4000, -36.579
1319.5000, -36.836
1319.6000, -37.001
1319.7000, -36.854
1319.8000, -36.863
1319.9000, -36.924
1320.0000, -36.960
1320.1000, -37.089
1320.2000, -37.312
1320.3000, -37.443
1320.4000, -37.259
1320.5000, -37.429
1320.6000, -37.394
1320.7000, -37.466
1320.8000, -37.527
1320.9000, -37.748
1321.0000, -37.738
1321.1000, -37.742
1321.2000, -37.704
1321.3000, -37.789
1321.4000, -37.812
1321.5000, -37.786
1321.6000, -37.868
1321.7000, -38.021
1321.8000, -37.967
1321.9000, -38.355
1322.0000, -38.390
1322.1000, -38.129
1322.2000, -38.396
1322.3000, -38.307
1322.4000, -38.398
1322.5000, -38.505
1322.6000, -38.197
1322.7000, -38.491
1322.8000, -38.606
1322.9000, -38.655
1323.0000, -38.694
1323.1000, -39.026
1323.2000, -38.871
1323.3000, -38.643
1323.4000, -38.742
1323.5000, -38.964
1323.6000, -38.687
1323.7000, -38.893
1323.8000, -39.086
1323.9000, -38.741
1324.0000, -39.164
1324.1000, -38.949
1324.2000, -39.098
1324.3000, -39.179
1324.4000, -39.122
1324.5000, -39.027
1324.6000, -39.139
1324.7000, -39.183
1324.8000, -39.442
1324.9000, -39.494
1325.0000, -39.323
1325.1000, -39.266
1325.2000, -39.536
1325.3000, -39.384
1325.4000, -39.387
1325.5000, -39.473
1325.6000, -39.469
1325.7000, -39.686
1325.8000, -39.721
1325.9000, -39.982
1326.0000, -39.586
1326.1000, -39.619
1326.2000, -39.736
1326.3000, -39.604
1326.4000, -39.953
1326.5000, -39.866
1326.6000, -39.720
1326.7000, -39.923
1326.8000, -39.884
1326.9000, -39.647
1327.0000, -39.672
1327.1000, -39.765
1327.2000, -39.877
1327.3000, -39.919
1327.4000, -39.825
1327.5000, -39.808
1327.6000, -39.774
1327.7000, -39.853
1327.8000, -39.950
1327.9000, -39.638
1328.0000, -39.719
1328.1000, -39.986
1328.2000, -39.731
1328.3000, -40.007
1328.4000, -39.841
1328.5000, -39.866
1328.6000, -39.950
1328.7000, -39.791
1328.8000, -39.891
1328.9000, -40.078
1329.0000, -39.918
1329.1000, -39.981
1329.2000, -39.996
1329.3000, -40.296
1329.4000, -40.067
1329.5000, -40.178
1329.6000, -40.119
1329.7000, -39.887
1329.8000, -39.984
1329.9000, -39.985
1330.0000, -40.186
1330.1000, -40.169
1330.2000, -40.108
1330.3000, -40.142
1330.4000, -40.039
1330.5000, -40.054
1330.6000, -39.839
1330.7000, -39.800
1330.8000, -40.087
1330.9000, -39.996
1331.0000, -40.115
1331.1000, -40.161
1331.2000, -40.023
1331.3000, -39.899
1331.4000, -40.034
1331.5000, -39.838
1331.6000, -40.085
1331.7000, -39.905
1331.8000, -39.974
1331.9000, -39.897
1332.0000, -39.813
1332.1000, -39.718
1332.2000, -39.801
1332.3000, -40.017
1332.4000, -39.893
1332.5000, -40.017
1332.6000, -39.777
1332.7000, -39.792
1332.8000, -40.072
1332.9000, -40.137
1333.0000, -40.013
1333.1000, -39.871
1333.2000, -39.874
1333.3000, -40.159
1333.4000, -39.882
1333.5000, -39.958
1333.6000, -39.738
1333.7000, -39.708
1333.8000, -39.733
1333.9000, -39.836
1334.0000, -39.839
1334.1000, -39.812
1334.2000, -39.774
1334.3000, -39.834
1334.4000, -39.418
1334.5000, -39.448
1334.6000, -39.536
1334.7000, -39.539
1334.8000, -39.561
1334.9000, -39.617
1335.0000, -39.641
1335.1000, -39.484
1335.2000, -39.386
1335.3000, -39.625
1335.4000, -39.554
1335.5000, -39.615
1335.6000, -39.439
1335.7000, -39.504
1335.8000, -39.458
1335.9000, -39.450
1336.0000, -39.568
1336.1000, -39.262
1336.2000, -39.329
1336.3000, -39.705
1336.4000, -39.326
1336.5000, -39.433
1336.6000, -39.371
1336.7000, -39.795
1336.8000, -39.680
1336.9000, -39.466
1337.0000, -39.229
1337.1000, -39.424
1337.2000, -39.373
1337.3000, -39.216
1337.4000, -39.149
1337.5000, -39.212
1337.6000, -39.171
1337.7000, -39.423
1337.8000, -39.037
1337.9000, -39.076
1338.0000, -38.981
1338.1000, -38.980
1338.2000, -39.099
1338.3000, -39.107
1338.4000, -39.000
1338.5000, -39.002
1338.6000, -38.973
1338.7000, -38.974
1338.8000, -39.025
1338.9000, -39.007
1339.0000, -38.975
1339.1000, -38.989
1339.2000, -39.057
1339.3000, -38.996
1339.4000, -39.129
1339.5000, -38.935
1339.6000, -38.882
1339.7000, -38.718
1339.8000, -38.951
1339.9000, -38.800
1340.0000, -38.847
1340.1000, -38.654
1340.2000, -38.907
1340.3000, -38.892
1340.4000, -38.852
1340.5000, -38.726
1340.6000, -38.651
1340.7000, -38.857
1340.8000, -38.681
1340.9000, -38.671
1341.0000, -38.578
1341.1000, -38.833
1341.2000, -38.621
1341.3000, -38.557
1341.4000, -38.782
1341.5000, -38.548
1341.6000, -38.594
1341.7000, -38.463
1341.8000, -38.709
1341.9000, -38.443
1342.0000, -38.415
1342.1000, -38.485
1342.2000, -38.407
1342.3000, -38.446
1342.4000, -38.569
1342.5000, -38.542
1342.6000, -38.298
1342.7000, -38.439
1342.8000, -38.522
1342.9000, -38.524
1343.0000, -38.430
1343.1000, -38.485
1343.2000, -38.386
1343.3000, -38.560
1343.4000, -38.370
1343.5000, -38.404
1343.6000, -38.220
1343.7000, -38.496
1343.8000, -38.436
1343.9000, -38.576
1344.0000, -38.356
1344.1000, -38.315
1344.2000, -38.282
1344.3000, -38.311
1344.4000, -38.496
1344.5000, -38.127
1344.6000, -38.180
1344.7000, -38.223
1344.8000, -38.092
1344.9000, -38.153
1345.0000, -37.988
1345.1000, -38.143
1345.2000, -38.003
1345.3000, -37.978
1345.4000, -38.269
1345.5000, -37.817
1345.6000, -37.981
1345.7000, -38.146
1345.8000, -38.037
1345.9000, -38.036
1346.0000, -37.983
1346.1000, -37.974
1346.2000, -37.796
1346.3000, -38.110
1346.4000, -37.991
1346.5000, -37.949
1346.6000, -38.100
1346.7000, -37.865
1346.8000, -37.924
1346.9000, -37.705
1347.0000, -38.037
1347.1000, -37.811
1347.2000, -37.783
1347.3000, -37.913
1347.4000, -38.113
1347.5000, -37.833
1347.6000, -37.841
1347.7000, -37.944
1347.8000, -37.877
1347.9000, -37.772
1348.0000, -38.083
1348.1000, -37.687
1348.2000, -37.780
1348.3000, -37.901
1348.4000, -37.853
1348.5000, -37.826
1348.6000, -37.823
1348.7000, -37.658
1348.8000, -37.714
1348.9000, -37.791
1349.0000, -37.731
1349.1000, -37.827
1349.2000, -37.744
1349.3000, -37.635
1349.4000, -37.734
1349.5000, -37.716
1349.6000, -37.562
1349.7000, -37.683
1349.8000, -37.335
1349.9000, -37.588
1350.0000, -37.673
1350.1000, -37.780
1350.2000, -37.812
1350.3000, -37.801
1350.4000, -37.613
1350.5000, -37.646
1350.6000, -37.779
1350.7000, -37.543
1350.8000, -37.638
1350.9000, -37.698
1351.0000, -37.655
1351.1000, -37.694
1351.2000, -37.496
1351.3000, -37.599
1351.4000, -37.387
1351.5000, -37.726
1351.6000, -37.722
1351.7000, -37.597
1351.8000, -37.508
1351.9000, -37.782
1352.0000, -37.469
1352.1000, -37.741
1352.2000, -37.516
1352.3000, -37.726
1352.4000, -37.492
1352.5000, -37.573
1352.6000, -37.788
1352.7000, -37.756
1352.8000, -37.643
1352.9000, -37.752
1353.0000, -37.727
1353.1000, -37.632
1353.2000, -37.706
1353.3000, -37.796
1353.4000, -37.571
1353.5000, -37.792
1353.6000, -37.744
1353.7000, -37.706
1353.8000, -37.804
1353.9000, -37.698
1354.0000, -37.539
1354.1000, -37.696
1354.2000, -37.543
1354.3000, -37.689
1354.4000, -37.835
1354.5000, -37.976
1354.6000, -37.951
1354.7000, -38.165
1354.8000, -38.200
1354.9000, -38.075
1355.0000, -38.112
1355.1000, -38.097
1355.2000, -37.675
1355.3000, -37.871
1355.4000, -37.587
1355.5000, -37.667
1355.6000, -38.033
1355.7000, -38.081
1355.8000, -38.175
1355.9000, -38.083
1356.0000, -38.230
1356.1000, -37.959
1356.2000, -37.830
1356.3000, -37.854
1356.4000, -37.783
1356.5000, -37.831
1356.6000, -37.694
1356.7000, -37.672
1356.8000, -37.755
1356.9000, -37.934
1357.0000, -38.148
1357.1000, -38.028
1357.2000, -38.000
1357.3000, -38.285
1357.4000, -38.074
1357.5000, -38.032
1357.6000, -37.795
1357.7000, -38.072
1357.8000, -38.003
1357.9000, -37.961
1358.0000, -37.988
1358.1000, -37.894
1358.2000, -37.875
1358.3000, -38.046
1358.4000, -37.927
1358.5000, -38.195
1358.6000, -38.135
1358.7000, -38.056
1358.8000, -38.048
1358.9000, -37.947
1359.0000, -38.286
1359.1000, -38.027
1359.2000, -37.925
1359.3000, -38.336
1359.4000, -38.480
1359.5000, -38.419
1359.6000, -38.520
1359.7000, -38.554
1359.8000, -38.236
1359.9000, -38.070
1360.0000, -38.233
1360.1000, -37.972
1360.2000, -37.972
1360.3000, -38.104
1360.4000, -38.089
1360.5000, -37.965
1360.6000, -38.186
1360.7000, -38.356
1360.8000, -38.199
1360.9000, -38.662
1361.0000, -38.634
1361.1000, -38.408
1361.2000, -38.320
1361.3000, -38.279
1361.4000, -38.090
1361.5000, -38.247
1361.6000, -38.349
1361.7000, -38.459
1361.8000, -38.462
1361.9000, -38.489
1362.0000, -38.495
1362.1000, -38.571
1362.2000, -39.056
1362.3000, -39.089
1362.4000, -39.023
1362.5000, -38.836
1362.6000, -38.850
1362.7000, -38.570
1362.8000, -38.054
1362.9000, -38.282
1363.0000, -38.235
1363.1000, -38.304
1363.2000, -38.129
1363.3000, -37.891
1363.4000, -38.024
1363.5000, -38.143
1363.6000, -38.109
1363.7000, -38.119
1363.8000, -38.068
1363.9000, -37.988
1364.0000, -38.191
1364.1000, -38.040
1364.2000, -38.244
1364.3000, -38.317
1364.4000, -38.639
1364.5000, -38.630
1364.6000, -38.698
1364.7000, -38.894
1364.8000, -38.809
1364.9000, -38.549
1365.0000, -38.301
1365.1000, -38.152
1365.2000, -38.311
1365.3000, -38.490
1365.4000, -38.488
1365.5000, -38.366
1365.6000, -38.383
1365.7000, -38.129
1365.8000, -38.195
1365.9000, -37.827
1366.0000, -38.090
1366.1000, -38.010
1366.2000, -37.870
1366.3000, -37.919
1366.4000, -37.932
1366.5000, -37.727
1366.6000, -38.057
1366.7000, -37.945
1366.8000, -37.943
1366.9000, -37.944
1367.0000, -38.113
1367.1000, -38.176
1367.2000, -37.980
1367.3000, -37.995
1367.4000, -38.060
1367.5000, -37.998
1367.6000, -38.084
1367.7000, -38.202
1367.8000, -38.309
1367.9000, -38.116
1368.0000, -38.037
1368.1000, -38.026
1368.2000, -37.827
1368.3000, -37.995
1368.4000, -38.000
1368.5000, -38.267
1368.6000, -38.103
1368.7000, -38.078
1368.8000, -38.136
1368.9000, -37.527
1369.0000, -37.550
1369.1000, -37.631
1369.2000, -37.604
1369.3000, -37.473
1369.4000, -37.500
1369.5000, -37.476
1369.6000, -37.368
1369.7000, -37.521
1369.8000, -37.779
1369.9000, -37.738
1370.0000, -37.831
1370.1000, -37.448
1370.2000, -37.667
1370.3000, -37.349
1370.4000, -37.407
1370.5000, -37.294
1370.6000, -37.283
1370.7000, -37.341
1370.8000, -37.469
1370.9000, -37.687
1371.0000, -37.822
1371.1000, -37.725
1371.2000, -37.700
1371.3000, -37.338
1371.4000, -37.136
1371.5000, -37.148
1371.6000, -37.280
1371.7000, -37.110
1371.8000, -36.998
1371.9000, -37.017
1372.0000, -37.141
1372.1000, -37.070
1372.2000, -37.409
1372.3000, -37.225
1372.4000, -37.027
1372.5000, -37.100
1372.6000, -36.722
1372.7000, -36.847
1372.8000, -36.606
1372.9000, -36.722
1373.0000, -36.894
1373.1000, -36.777
1373.2000, -36.757
1373.3000, -36.855
1373.4000, -36.611
1373.5000, -36.766
1373.6000, -36.735
1373.7000, -36.552
1373.8000, -36.716
1373.9000, -36.544
1374.0000, -36.554
1374.1000, -36.464
1374.2000, -36.341
1374.3000, -36.581
1374.4000, -36.410
1374.5000, -36.491
1374.6000, -36.475
1374.7000, -36.465
1374.8000, -36.494
1374.9000, -36.429
1375.0000, -36.390
1375.1000, -36.301
1375.2000, -36.335
1375.3000, -36.253
1375.4000, -36.158
1375.5000, -36.067
1375.6000, -36.075
1375.7000, -36.078
1375.8000, -36.159
1375.9000, -36.109
1376.0000, -36.108
1376.1000, -36.101
1376.2000, -36.018
1376.3000, -36.007
1376.4000, -35.964
1376.5000, -35.774
1376.6000, -35.897
1376.7000, -35.773
1376.8000, -36.109
1376.9000, -35.988
1377.0000, -36.076
1377.1000, -36.114
1377.2000, -36.062
1377.3000, -35.659
1377.4000, -35.627
1377.5000, -35.701
1377.6000, -35.644
1377.7000, -35.634
1377.8000, -35.528
1377.9000, -35.392
1378.0000, -35.336
1378.1000, -35.459
1378.2000, -35.569
1378.3000, -35.306
1378.4000, -35.420
1378.5000, -35.398
1378.6000, -35.721
1378.7000, -35.687
1378.8000, -35.704
1378.9000, -35.483
1379.0000, -35.415
1379.1000, -35.344
1379.2000, -35.243
1379.3000, -35.101
1379.4000, -35.235
1379.5000, -35.170
1379.6000, -35.169
1379.7000, -35.021
1379.8000, -35.075
1379.9000, -34.998
1380.0000, -35.306
1380.1000, -34.980
1380.2000, -35.119
1380.3000, -35.000
1380.4000, -35.215
1380.5000, -35.759
1380.6000, -35.736
1380.7000, -35.729
1380.8000, -35.758
1380.9000, -35.442
1381.0000, -35.371
1381.1000, -34.724
1381.2000, -34.975
1381.3000, -34.980
1381.4000, -34.648
1381.5000, -34.344
1381.6000, -34.684
1381.7000, -34.528
1381.8000, -34.450
1381.9000, -34.584
1382.0000, -34.349
1382.1000, -34.434
1382.2000, -34.495
1382.3000, -34.642
1382.4000, -34.738
1382.5000, -34.931
1382.6000, -35.244
1382.7000, -35.370
1382.8000, -35.221
1382.9000, -34.969
1383.0000, -34.877
1383.1000, -34.183
1383.2000, -34.101
1383.3000, -34.197
1383.4000, -34.125
1383.5000, -33.985
1383.6000, -34.022
1383.7000, -34.293
1383.8000, -34.324
1383.9000, -34.135
1384.0000, -34.113
1384.1000, -34.185
1384.2000, -33.840
1384.3000, -33.677
1384.4000, -33.566
1384.5000, -33.755
1384.6000, -33.631
1384.7000, -33.665
1384.8000, -33.845
1384.9000, -34.036
1385.0000, -33.932
1385.1000, -33.933
1385.2000, -33.987
1385.3000, -33.840
1385.4000, -33.542
1385.5000, -33.466
1385.6000, -33.580
1385.7000, -33.574
1385.8000, -33.535
1385.9000, -33.497
1386.0000, -33.381
1386.1000, -33.572
1386.2000, -33.416
1386.3000, -33.484
1386.4000, -33.306
1386.5000, -33.139
1386.6000, -33.389
1386.7000, -33.229
1386.8000, -33.038
1386.9000, -33.097
1387.0000, -33.008
1387.1000, -33.041
1387.2000, -32.973
1387.3000, -33.141
1387.4000, -33.013
1387.5000, -33.012
1387.6000, -33.152
1387.7000, -33.199
1387.8000, -33.444
1387.9000, -33.356
1388.0000, -33.342
1388.1000, -33.492
1388.2000, -33.267
1388.3000, -33.338
1388.4000, -33.007
1388.5000, -33.023
1388.6000, -33.040
1388.7000, -32.968
1388.8000, -32.893
1388.9000, -32.937
1389.0000, -32.728
1389.1000, -32.857
1389.2000, -32.774
1389.3000, -32.823
1389.4000, -32.723
1389.5000, -32.677
1389.6000, -32.685
1389.7000, -32.671
1389.8000, -32.862
1389.9000, -32.777
1390.0000, -32.645
1390.1000, -32.719
1390.2000, -32.573
1390.3000, -32.537
1390.4000, -32.532
1390.5000, -32.660
1390.6000, -32.684
1390.7000, -32.752
1390.8000, -32.454
1390.9000, -32.488
1391.0000, -32.393
1391.1000, -32.500
1391.2000, -32.603
1391.3000, -32.593
1391.4000, -32.726
1391.5000, -32.397
1391.6000, -32.513
1391.7000, -32.618
1391.8000, -32.298
1391.9000, -32.555
1392.0000, -32.838
1392.1000, -32.634
1392.2000, -32.773
1392.3000, -32.936
1392.4000, -33.436
1392.5000, -33.039
1392.6000, -32.993
1392.7000, -32.956
1392.8000, -32.765
1392.9000, -32.478
1393.0000, -32.470
1393.1000, -32.412
1393.2000, -32.429
1393.3000, -32.336
1393.4000, -32.377
1393.5000, -32.507
1393.6000, -32.460
1393.7000, -32.463
1393.8000, -32.531
1393.9000, -32.456
1394.0000, -32.543
1394.1000, -32.605
1394.2000, -32.673
1394.3000, -32.487
1394.4000, -32.415
1394.5000, -32.475
1394.6000, -32.525
1394.7000, -32.685
1394.8000, -32.830
1394.9000, -32.980
1395.0000, -33.020
1395.1000, -32.984
1395.2000, -32.810
1395.3000, -32.716
1395.4000, -32.856
1395.5000, -32.589
1395.6000, -32.801
1395.7000, -32.733
1395.8000, -32.722
1395.9000, -32.644
1396.0000, -32.467
1396.1000, -32.473
1396.2000, -32.826
1396.3000, -32.976
1396.4000, -33.044
1396.5000, -33.127
1396.6000, -33.158
1396.7000, -32.787
1396.8000, -32.703
1396.9000, -32.654
1397.0000, -32.635
1397.1000, -32.462
1397.2000, -32.621
1397.3000, -32.700
1397.4000, -32.601
1397.5000, -32.397
1397.6000, -32.579
1397.7000, -32.449
1397.8000, -32.521
1397.9000, -32.604
1398.0000, -32.657
1398.1000, -32.544
1398.2000, -32.577
1398.3000, -32.541
1398.4000, -32.586
1398.5000, -32.586
1398.6000, -32.679
1398.7000, -32.586
1398.8000, -32.665
1398.9000, -32.511
1399.0000, -32.440
1399.1000, -32.720
1399.2000, -32.607
1399.3000, -32.858
1399.4000, -32.970
1399.5000, -32.873
1399.6000, -32.880
1399.7000, -33.100
1399.8000, -32.774
1399.9000, -32.796
1400.0000, -32.839
1400.1000, -32.921
1400.2000, -32.748
1400.3000, -32.895
1400.4000, -32.889
1400.5000, -32.944
1400.6000, -33.297
1400.7000, -33.141
1400.8000, -33.266
1400.9000, -33.303
1401.0000, -33.026
1401.1000, -32.733
1401.2000, -32.728
1401.3000, -33.058
1401.4000, -32.866
1401.5000, -33.089
1401.6000, -32.978
1401.7000, -32.852
1401.8000, -32.948
1401.9000, -32.787
1402.0000, -32.914
1402.1000, -32.765
1402.2000, -32.836
1402.3000, -32.856
1402.4000, -32.900
1402.5000, -32.855
1402.6000, -32.824
1402.7000, -32.837
1402.8000, -32.817
1402.9000, -32.831
1403.0000, -32.900
1403.1000, -32.769
1403.2000, -33.005
1403.3000, -32.985
1403.4000, -32.777
1403.5000, -32.984
1403.6000, -32.832
1403.7000, -32.866
1403.8000, -32.945
1403.9000, -32.955
1404.0000, -33.001
1404.1000, -33.080
1404.2000, -33.115
1404.3000, -32.984
1404.4000, -33.147
1404.5000, -33.107
1404.6000, -33.063
1404.7000, -33.200
1404.8000, -33.582
1404.9000, -33.524
1405.0000, -33.815
1405.1000, -33.716
1405.2000, -33.694
1405.3000, -33.267
1405.4000, -33.090
1405.5000, -33.205
1405.6000, -33.160
1405.7000, -33.129
1405.8000, -33.265
1405.9000, -33.245
1406.0000, -33.197
1406.1000, -33.353
1406.2000, -33.311
1406.3000, -33.226
1406.4000, -33.314
1406.5000, -33.365
1406.6000, -33.556
1406.7000, -33.436
1406.8000, -33.300
1406.9000, -33.503
1407.0000, -33.550
1407.1000, -33.609
1407.2000, -33.636
1407.3000, -33.767
1407.4000, -33.586
1407.5000, -33.534
1407.6000, -33.507
1407.7000, -33.594
1407.8000, -33.443
1407.9000, -33.508
1408.0000, -33.492
1408.1000, -33.389
1408.2000, -33.467
1408.3000, -33.582
1408.4000, -33.403
1408.5000, -33.512
1408.6000, -33.545
1408.7000, -33.616
1408.8000, -33.591
1408.9000, -33.702
1409.0000, -33.620
1409.1000, -33.799
1409.2000, -33.941
1409.3000, -34.000
1409.4000, -33.995
1409.5000, -34.064
1409.6000, -34.013
1409.7000, -34.031
1409.8000, -33.830
1409.9000, -33.875
1410.0000, -33.930
1410.1000, -33.893
1410.2000, -33.675
1410.3000, -33.806
1410.4000, -33.855
1410.5000, -33.698
1410.6000, -33.738
1410.7000, -33.829
1410.8000, -33.864
1410.9000, -33.923
1411.0000, -33.936
1411.1000, -33.745
1411.2000, -33.883
1411.3000, -33.851
1411.4000, -33.887
1411.5000, -33.884
1411.6000, -34.059
1411.7000, -34.182
1411.8000, -34.055
1411.9000, -33.936
1412.0000, -33.947
1412.1000, -34.138
1412.2000, -34.304
1412.3000, -34.178
1412.4000, -34.226
1412.5000, -34.336
1412.6000, -34.111
1412.7000, -34.118
1412.8000, -34.187
1412.9000, -34.089
1413.0000, -34.133
1413.1000, -34.201
1413.2000, -34.102
1413.3000, -34.042
1413.4000, -34.172
1413.5000, -34.479
1413.6000, -34.205
1413.7000, -34.200
1413.8000, -34.213
1413.9000, -34.453
1414.0000, -34.439
1414.1000, -34.364
1414.2000, -34.516
1414.3000, -34.520
1414.4000, -34.417
1414.5000, -34.398
1414.6000, -34.447
1414.7000, -34.434
1414.8000, -34.257
1414.9000, -34.272
1415.0000, -34.471
1415.1000, -34.301
1415.2000, -34.307
1415.3000, -34.332
1415.4000, -34.330
1415.5000, -34.363
1415.6000, -34.295
1415.7000, -34.471
1415.8000, -34.410
1415.9000, -34.324
1416.0000, -34.209
1416.1000, -34.258
1416.2000, -34.339
1416.3000, -34.348
1416.4000, -34.394
1416.5000, -34.371
1416.6000, -34.287
1416.7000, -34.315
1416.8000, -34.445
1416.9000, -34.500
1417.0000, -34.445
1417.1000, -34.325
1417.2000, -34.455
1417.3000, -34.446
1417.4000, -34.446
1417.5000, -34.459
1417.6000, -34.695
1417.7000, -34.469
1417.8000, -34.453
1417.9000, -34.348
1418.0000, -34.307
1418.1000, -34.394
1418.2000, -34.442
1418.3000, -34.657
1418.4000, -34.331
1418.5000, -34.533
1418.6000, -34.383
1418.7000, -34.498
1418.8000, -34.671
1418.9000, -34.633
1419.0000, -34.639
1419.1000, -34.791
1419.2000, -34.797
1419.3000, -34.639
1419.4000, -34.627
1419.5000, -34.638
1419.6000, -34.641
1419.7000, -34.461
1419.8000, -34.725
1419.9000, -34.674
1420.0000, -34.643
1420.1000, -34.581
1420.2000, -34.690
1420.3000, -34.619
1420.4000, -34.528
1420.5000, -34.811
1420.6000, -34.647
1420.7000, -34.745
1420.8000, -34.917
1420.9000, -34.619
1421.0000, -34.714
1421.1000, -34.708
1421.2000, -34.711
1421.3000, -34.826
1421.4000, -34.879
1421.5000, -34.894
1421.6000, -34.831
1421.7000, -34.956
1421.8000, -34.956
1421.9000, -34.718
1422.0000, -34.867
1422.1000, -34.701
1422.2000, -35.095
1422.3000, -35.061
1422.4000, -34.813
1422.5000, -35.016
1422.6000, -35.018
1422.7000, -35.016
1422.8000, -34.884
1422.9000, -34.938
1423.0000, -35.071
1423.1000, -35.144
1423.2000, -35.207
1423.3000, -35.173
1423.4000, -34.936
1423.5000, -35.145
1423.6000, -35.088
1423.7000, -35.180
1423.8000, -35.285
1423.9000, -35.368
1424.0000, -35.461
1424.1000, -35.474
1424.2000, -35.524
1424.3000, -35.388
1424.4000, -35.389
1424.5000, -35.352
1424.6000, -35.310
1424.7000, -35.447
1424.8000, -35.466
1424.9000, -35.327
1425.0000, -35.227
1425.1000, -35.481
1425.2000, -35.421
1425.3000, -35.491
1425.4000, -35.381
1425.5000, -35.447
1425.6000, -35.531
1425.7000, -35.572
1425.8000, -35.571
1425.9000, -35.481
1426.0000, -35.531
1426.1000, -35.534
1426.2000, -35.599
1426.3000, -35.703
1426.4000, -35.448
1426.5000, -35.616
1426.6000, -35.633
1426.7000, -35.693
1426.8000, -35.630
1426.9000, -35.674
1427.0000, -35.762
1427.1000, -35.794
1427.2000, -35.902
1427.3000, -35.809
1427.4000, -35.683
1427.5000, -35.798
1427.6000, -35.761
1427.7000, -35.920
1427.8000, -35.972
1427.9000, -36.034
1428.0000, -35.734
1428.1000, -36.181
1428.2000, -36.004
1428.3000, -35.930
1428.4000, -36.031
1428.5000, -36.067
1428.6000, -35.872
1428.7000, -35.948
1428.8000, -35.929
1428.9000, -36.040
1429.0000, -35.945
1429.1000, -36.143
1429.2000, -36.088
1429.3000, -36.050
1429.4000, -35.966
1429.5000, -36.178
1429.6000, -36.121
1429.7000, -35.850
1429.8000, -36.343
1429.9000, -36.109
1430.0000, -36.036
1430.1000, -36.290
1430.2000, -36.070
1430.3000, -36.105
1430.4000, -36.237
1430.5000, -36.150
1430.6000, -36.178
1430.7000, -36.026
1430.8000, -36.269
1430.9000, -36.171
1431.0000, -36.327
1431.1000, -36.413
1431.2000, -36.346
1431.3000, -36.400
1431.4000, -36.247
1431.5000, -36.459
1431.6000, -36.331
1431.7000, -36.220
1431.8000, -36.304
1431.9000, -36.215
1432.0000, -36.334
1432.1000, -36.254
1432.2000, -36.280
1432.3000, -36.457
1432.4000, -36.488
1432.5000, -36.515
1432.6000, -36.387
1432.7000, -36.445
1432.8000, -36.292
1432.9000, -36.316
1433.0000, -36.235
1433.1000, -36.303
1433.2000, -36.379
1433.3000, -36.334
1433.4000, -36.292
1433.5000, -36.353
1433.6000, -36.097
1433.7000, -36.355
1433.8000, -36.393
1433.9000, -36.362
1434.0000, -36.283
1434.1000, -36.375
1434.2000, -36.401
1434.3000, -36.369
1434.4000, -36.453
1434.5000, -36.302
1434.6000, -36.332
1434.7000, -36.209
1434.8000, -36.212
1434.9000, -36.274
1435.0000, -36.112
1435.1000, -36.380
1435.2000, -36.300
1435.3000, -36.262
1435.4000, -36.432
1435.5000, -36.481
1435.6000, -36.261
1435.7000, -36.184
1435.8000, -36.110
1435.9000, -36.292
1436.0000, -36.309
1436.1000, -36.202
1436.2000, -36.238
1436.3000, -36.130
1436.4000, -36.061
1436.5000, -35.952
1436.6000, -35.924
1436.7000, -36.221
1436.8000, -36.363
1436.9000, -36.067
1437.0000, -36.129
1437.1000, -36.094
1437.2000, -36.206
1437.3000, -36.322
1437.4000, -36.083
1437.5000, -36.117
1437.6000, -36.369
1437.7000, -36.366
1437.8000, -36.364
1437.9000, -36.231
1438.0000, -36.117
1438.1000, -36.166
1438.2000, -36.287
1438.3000, -36.166
1438.4000, -36.124
1438.5000, -36.076
1438.6000, -36.146
1438.7000, -36.422
1438.8000, -36.046
1438.9000, -36.128
1439.0000, -36.256
1439.1000, -36.201
1439.2000, -36.146
1439.3000, -36.052
1439.4000, -36.206
1439.5000, -36.163
1439.6000, -36.131
1439.7000, -36.071
1439.8000, -36.226
1439.9000, -36.092
1440.0000, -36.269
1440.1000, -36.144
1440.2000, -36.140
1440.3000, -36.218
1440.4000, -35.966
1440.5000, -36.266
1440.6000, -36.146
1440.7000, -36.428
1440.8000, -36.062
1440.9000, -36.088
1441.0000, -36.373
1441.1000, -36.005
1441.2000, -36.019
1441.3000, -36.245
1441.4000, -36.408
1441.5000, -36.474
1441.6000, -36.186
1441.7000, -36.181
1441.8000, -36.165
1441.9000, -36.170
1442.0000, -36.313
1442.1000, -36.267
1442.2000, -36.173
1442.3000, -36.099
1442.4000, -36.266
1442.5000, -36.258
1442.6000, -36.328
1442.7000, -36.112
1442.8000, -36.328
1442.9000, -36.321
1443.0000, -36.343
1443.1000, -36.385
1443.2000, -36.116
1443.3000, -36.201
1443.4000, -36.108
1443.5000, -36.361
1443.6000, -36.151
1443.7000, -36.413
1443.8000, -36.079
1443.9000, -36.359
1444.0000, -36.428
1444.1000, -36.261
1444.2000, -36.289
1444.3000, -36.545
1444.4000, -36.396
1444.5000, -36.377
1444.6000, -36.335
1444.7000, -36.063
1444.8000, -36.265
1444.9000, -36.564
1445.0000, -36.430
1445.1000, -36.374
1445.2000, -36.468
1445.3000, -36.374
1445.4000, -36.485
1445.5000, -36.351
1445.6000, -36.397
1445.7000, -36.425
1445.8000, -36.323
1445.9000, -36.341
1446.0000, -36.279
1446.1000, -36.175
1446.2000, -36.465
1446.3000, -36.257
1446.4000, -36.441
1446.5000, -36.301
1446.6000, -36.177
1446.7000, -36.321
1446.8000, -36.275
1446.9000, -36.125
1447.0000, -36.251
1447.1000, -36.263
1447.2000, -36.257
1447.3000, -36.242
1447.4000, -36.427
1447.5000, -36.100
1447.6000, -36.245
1447.7000, -36.305
1447.8000, -36.227
1447.9000, -36.369
1448.0000, -36.315
1448.1000, -36.379
1448.2000, -36.247
1448.3000, -36.143
1448.4000, -36.171
1448.5000, -36.393
1448.6000, -36.294
1448.7000, -36.248
1448.8000, -36.368
1448.9000, -36.501
1449.0000, -36.331
1449.1000, -36.239
1449.2000, -36.251
1449.3000, -36.399
1449.4000, -36.233
1449.5000, -36.201
1449.6000, -36.251
1449.7000, -36.408
1449.8000, -36.136
1449.9000, -36.103
1450.0000, -36.434
1450.1000, -36.346
1450.2000, -36.310
1450.3000, -36.465
1450.4000, -36.368
1450.5000, -36.222
1450.6000, -36.372
1450.7000, -36.418
1450.8000, -36.404
1450.9000, -36.029
1451.0000, -36.162
1451.1000, -36.276
1451.2000, -36.403
1451.3000, -36.300
1451.4000, -36.129
1451.5000, -36.354
1451.6000, -36.198
1451.7000, -36.160
1451.8000, -36.110
1451.9000, -36.430
1452.0000, -36.167
1452.1000, -36.272
1452.2000, -36.314
1452.3000, -36.552
1452.4000, -36.137
1452.5000, -36.127
1452.6000, -36.205
1452.7000, -36.164
1452.8000, -36.369
1452.9000, -36.394
1453.0000, -36.255
1453.1000, -36.035
1453.2000, -36.069
1453.3000, -36.086
1453.4000, -36.332
1453.5000, -36.243
1453.6000, -36.527
1453.7000, -36.291
1453.8000, -36.253
1453.9000, -36.328
1454.0000, -36.274
1454.1000, -36.051
1454.2000, -36.264
1454.3000, -36.247
1454.4000, -36.279
1454.5000, -36.197
1454.6000, -36.255
1454.7000, -36.186
1454.8000, -36.391
1454.9000, -35.939
1455.0000, -36.263
1455.1000, -36.261
1455.2000, -36.266
1455.3000, -36.326
1455.4000, -36.413
1455.5000, -36.410
1455.6000, -36.379
1455.7000, -36.395
1455.8000, -36.307
1455.9000, -36.242
1456.0000, -36.117
1456.1000, -36.422
1456.2000, -36.323
1456.3000, -36.215
1456.4000, -36.572
1456.5000, -36.582
1456.6000, -36.404
1456.7000, -36.396
1456.8000, -36.301
1456.9000, -36.405
1457.0000, -36.261
1457.1000, -36.518
1457.2000, -36.478
1457.3000, -36.438
1457.4000, -36.336
1457.5000, -36.457
1457.6000, -36.422
1457.7000, -36.658
1457.8000, -36.343
1457.9000, -36.517
1458.0000, -36.427
1458.1000, -36.760
1458.2000, -36.632
1458.3000, -36.528
1458.4000, -36.599
1458.5000, -36.774
1458.6000, -36.741
1458.7000, -36.735
1458.8000, -36.599
1458.9000, -36.688
1459.0000, -36.735
1459.1000, -36.802
1459.2000, -36.714
1459.3000, -36.951
1459.4000, -36.901
1459.5000, -36.798
1459.6000, -36.790
1459.7000, -36.942
1459.8000, -36.766
1459.9000, -36.935
1460.0000, -37.096
1460.1000, -37.140
1460.2000, -36.846
1460.3000, -37.081
1460.4000, -37.176
1460.5000, -37.149
1460.6000, -37.076
1460.7000, -36.812
1460.8000, -37.103
1460.9000, -37.237
1461.0000, -37.094
1461.1000, -37.341
1461.2000, -37.134
1461.3000, -37.287
1461.4000, -37.253
1461.5000, -37.198
1461.6000, -37.354
1461.7000, -37.315
1461.8000, -37.245
1461.9000, -37.591
1462.0000, -37.423
1462.1000, -37.525
1462.2000, -37.481
1462.3000, -37.583
1462.4000, -37.539
1462.5000, -37.450
1462.6000, -37.670
1462.7000, -37.633
1462.8000, -37.465
1462.9000, -37.435
1463.0000, -37.525
1463.1000, -37.896
1463.2000, -37.659
1463.3000, -37.703
1463.4000, -37.706
1463.5000, -37.720
1463.6000, -37.598
1463.7000, -37.861
1463.8000, -37.797
1463.9000, -37.912
1464.0000, -37.897
1464.1000, -37.810
1464.2000, -38.093
1464.3000, -37.722
1464.4000, -37.943
1464.5000, -38.230
1464.6000, -38.232
1464.7000, -37.936
1464.8000, -38.100
1464.9000, -37.837
1465.0000, -37.993
1465.1000, -38.112
1465.2000, -38.061
1465.3000, -38.231
1465.4000, -38.195
1465.5000, -38.125
1465.6000, -38.049
1465.7000, -38.271
1465.8000, -38.033
1465.9000, -38.222
1466.0000, -38.140
1466.1000, -38.537
1466.2000, -38.265
1466.3000, -38.292
1466.4000, -38.459
1466.5000, -38.459
1466.6000, -38.382
1466.7000, -38.440
1466.8000, -38.368
1466.9000, -38.210
1467.0000, -38.548
1467.1000, -38.297
1467.2000, -38.483
1467.3000, -38.378
1467.4000, -38.502
1467.5000, -38.548
1467.6000, -38.560
1467.7000, -38.529
1467.8000, -38.578
1467.9000, -38.363
1468.0000, -38.428
1468.1000, -38.409
1468.2000, -38.564
1468.3000, -38.319
1468.4000, -38.336
1468.5000, -38.742
1468.6000, -38.498
1468.7000, -38.675
1468.8000, -38.701
1468.9000, -38.529
1469.0000, -38.579
1469.1000, -38.789
1469.2000, -38.598
1469.3000, -38.567
1469.4000, -38.839
1469.5000, -38.727
1469.6000, -38.726
1469.7000, -38.613
1469.8000, -38.821
1469.9000, -38.496
1470.0000, -38.551
1470.1000, -38.695
1470.2000, -38.483
1470.3000, -38.363
1470.4000, -38.553
1470.5000, -38.452
1470.6000, -38.749
1470.7000, -38.491
1470.8000, -38.591
1470.9000, -38.510
1471.0000, -38.543
1471.1000, -38.640
1471.2000, -38.582
1471.3000, -38.373
1471.4000, -38.447
1471.5000, -38.327
1471.6000, -38.633
1471.7000, -38.565
1471.8000, -38.598
1471.9000, -38.637
1472.0000, -38.573
1472.1000, -38.523
1472.2000, -38.720
1472.3000, -38.753
1472.4000, -38.737
1472.5000, -38.499
1472.6000, -38.617
1472.7000, -38.440
1472.8000, -38.420
1472.9000, -38.545
1473.0000, -38.496
1473.1000, -38.565
1473.2000, -38.460
1473.3000, -38.579
1473.4000, -38.456
1473.5000, -38.589
1473.6000, -38.666
1473.7000, -38.545
1473.8000, -38.426
1473.9000, -38.326
1474.0000, -38.325
1474.1000, -38.408
1474.2000, -38.335
1474.3000, -38.430
1474.4000, -38.515
1474.5000, -38.522
1474.6000, -38.499
1474.7000, -38.624
1474.8000, -38.651
1474.9000, -38.441
1475.0000, -38.660
1475.1000, -38.691
1475.2000, -38.373
1475.3000, -38.484
1475.4000, -38.668
1475.5000, -38.643
1475.6000, -38.618
1475.7000, -38.550
1475.8000, -38.618
1475.9000, -38.741
1476.0000, -38.621
1476.1000, -38.684
1476.2000, -38.587
1476.3000, -38.576
1476.4000, -38.885
1476.5000, -38.722
1476.6000, -38.594
1476.7000, -38.643
1476.8000, -38.796
1476.9000, -38.728
1477.0000, -38.686
1477.1000, -38.856
1477.2000, -38.915
1477.3000, -38.665
1477.4000, -38.905
1477.5000, -38.474
1477.6000, -38.870
1477.7000, -38.823
1477.8000, -38.780
1477.9000, -38.864
1478.0000, -38.741
1478.1000, -38.843
1478.2000, -39.047
1478.3000, -38.876
1478.4000, -38.831
1478.5000, -38.962
1478.6000, -38.919
1478.7000, -38.964
1478.8000, -39.075
1478.9000, -38.923
1479.0000, -39.227
1479.1000, -39.001
1479.2000, -38.927
1479.3000, -38.946
1479.4000, -39.013
1479.5000, -39.110
1479.6000, -38.900
1479.7000, -38.935
1479.8000, -39.151
1479.9000, -39.119
1480.0000, -38.935
1480.1000, -38.968
1480.2000, -39.047
1480.3000, -38.982
1480.4000, -38.857
1480.5000, -39.174
1480.6000, -39.200
1480.7000, -39.003
1480.8000, -39.307
1480.9000, -39.034
1481.0000, -39.257
1481.1000, -39.184
1481.2000, -39.460
1481.3000, -38.880
1481.4000, -39.178
1481.5000, -39.322
1481.6000, -39.163
1481.7000, -39.273
1481.8000, -39.249
1481.9000, -39.368
1482.0000, -39.218
1482.1000, -39.356
1482.2000, -39.193
1482.3000, -39.316
1482.4000, -39.188
1482.5000, -39.172
1482.6000, -39.217
1482.7000, -39.183
1482.8000, -39.260
1482.9000, -39.449
1483.0000, -39.397
1483.1000, -39.302
1483.2000, -39.390
1483.3000, -39.063
1483.4000, -39.337
1483.5000, -39.157
1483.6000, -39.495
1483.7000, -39.469
1483.8000, -39.423
1483.9000, -39.336
1484.0000, -39.306
1484.1000, -39.362
1484.2000, -39.273
1484.3000, -39.322
1484.4000, -39.505
1484.5000, -39.197
1484.6000, -39.457
1484.7000, -39.311
1484.8000, -39.310
1484.9000, -39.612
1485.0000, -39.532
1485.1000, -39.468
1485.2000, -39.360
1485.3000, -39.705
1485.4000, -39.367
1485.5000, -39.656
1485.6000, -39.570
1485.7000, -39.416
1485.8000, -39.626
1485.9000, -39.536
1486.0000, -39.837
1486.1000, -39.692
1486.2000, -39.550
1486.3000, -39.468
1486.4000, -39.672
1486.5000, -39.677
1486.6000, -39.539
1486.7000, -39.685
1486.8000, -39.684
1486.9000, -39.642
1487.0000, -39.776
1487.1000, -39.794
1487.2000, -39.651
1487.3000, -39.673
1487.4000, -39.561
1487.5000, -39.660
1487.6000, -39.666
1487.7000, -39.677
1487.8000, -39.697
1487.9000, -39.890
1488.0000, -39.673
1488.1000, -39.688
1488.2000, -39.688
1488.3000, -39.696
1488.4000, -39.676
1488.5000, -39.851
1488.6000, -39.805
1488.7000, -39.617
1488.8000, -39.881
1488.9000, -39.625
1489.0000, -39.647
1489.1000, -39.896
1489.2000, -39.823
1489.3000, -39.862
1489.4000, -39.848
1489.5000, -39.794
1489.6000, -40.017
1489.7000, -39.914
1489.8000, -39.995
1489.9000, -39.912
1490.0000, -39.842
1490.1000, -39.876
1490.2000, -39.976
1490.3000, -39.834
1490.4000, -39.986
1490.5000, -40.124
1490.6000, -40.103
1490.7000, -39.881
1490.8000, -39.939
1490.9000, -40.182
1491.0000, -39.890
1491.1000, -40.063
1491.2000, -39.898
1491.3000, -40.154
1491.4000, -40.182
1491.5000, -40.193
1491.6000, -40.138
1491.7000, -40.034
1491.8000, -40.127
1491.9000, -39.981
1492.0000, -39.905
1492.1000, -40.366
1492.2000, -40.292
1492.3000, -40.221
1492.4000, -40.381
1492.5000, -40.378
1492.6000, -40.352
1492.7000, -40.348
1492.8000, -40.299
1492.9000, -40.431
1493.0000, -40.521
1493.1000, -40.149
1493.2000, -40.212
1493.3000, -40.563
1493.4000, -40.361
1493.5000, -40.374
1493.6000, -40.494
1493.7000, -40.513
1493.8000, -40.528
1493.9000, -40.496
1494.0000, -40.427
1494.1000, -40.500
1494.2000, -40.680
1494.3000, -40.734
1494.4000, -41.087
1494.5000, -40.672
1494.6000, -40.684
1494.7000, -40.909
1494.8000, -40.718
1494.9000, -40.805
1495.0000, -40.806
1495.1000, -40.711
1495.2000, -41.018
1495.3000, -40.927
1495.4000, -40.995
1495.5000, -40.960
1495.6000, -41.139
1495.7000, -40.983
1495.8000, -41.276
1495.9000, -41.068
1496.0000, -40.981
1496.1000, -41.287
1496.2000, -41.104
1496.3000, -41.131
1496.4000, -41.302
1496.5000, -41.241
1496.6000, -41.269
1496.7000, -41.172
1496.8000, -41.254
1496.9000, -41.672
1497.0000, -41.449
1497.1000, -41.637
1497.2000, -41.539
1497.3000, -41.803
1497.4000, -41.547
1497.5000, -41.741
1497.6000, -41.828
1497.7000, -41.758
1497.8000, -41.631
1497.9000, -41.969
1498.0000, -41.735
1498.1000, -41.941
1498.2000, -41.787
1498.3000, -41.874
1498.4000, -41.912
1498.5000, -41.862
1498.6000, -41.884
1498.7000, -41.989
1498.8000, -42.203
1498.9000, -42.098
1499.0000, -42.064
1499.1000, -42.059
1499.2000, -42.058
1499.3000, -41.991
1499.4000, -42.050
1499.5000, -42.172
1499.6000, -42.238
1499.7000, -42.234
1499.8000, -42.426
1499.9000, -42.470
1500.0000, -42.291
1500.1000, -42.111
1500.2000, -42.223
1500.3000, -42.367
1500.4000, -42.443
1500.5000, -42.544
1500.6000, -42.459
1500.7000, -42.276
1500.8000, -42.583
1500.9000, -42.719
1501.0000, -42.548
1501.1000, -42.496
1501.2000, -42.465
1501.3000, -42.545
1501.4000, -42.597
1501.5000, -42.734
1501.6000, -42.821
1501.7000, -42.898
1501.8000, -42.758
1501.9000, -42.538
1502.0000, -42.777
1502.1000, -42.652
1502.2000, -43.034
1502.3000, -42.857
1502.4000, -42.885
1502.5000, -42.784
1502.6000, -43.037
1502.7000, -43.113
1502.8000, -42.969
1502.9000, -42.798
1503.0000, -42.999
1503.1000, -43.203
1503.2000, -43.136
1503.3000, -42.913
1503.4000, -43.034
1503.5000, -42.869
1503.6000, -43.358
1503.7000, -43.164
1503.8000, -43.300
1503.9000, -43.125
1504.0000, -43.119
1504.1000, -43.130
1504.2000, -43.053
1504.3000, -43.149
1504.4000, -43.036
1504.5000, -43.099
1504.6000, -43.123
1504.7000, -43.116
1504.8000, -43.009
1504.9000, -43.165
1505.0000, -43.012
1505.1000, -43.143
1505.2000, -42.950
1505.3000, -42.989
1505.4000, -42.910
1505.5000, -43.378
1505.6000, -43.199
1505.7000, -42.878
1505.8000, -42.751
1505.9000, -42.970
1506.0000, -43.013
1506.1000, -43.145
1506.2000, -43.121
1506.3000, -42.888
1506.4000, -43.085
1506.5000, -42.860
1506.6000, -42.905
1506.7000, -42.848
1506.8000, -42.807
1506.9000, -42.924
1507.0000, -42.951
1507.1000, -43.112
1507.2000, -42.893
1507.3000, -43.006
1507.4000, -42.930
1507.5000, -42.886
1507.6000, -43.013
1507.7000, -43.149
1507.8000, -43.128
1507.9000, -42.666
1508.0000, -42.839
1508.1000, -42.810
1508.2000, -42.736
1508.3000, -42.984
1508.4000, -42.841
1508.5000, -42.831
1508.6000, -42.628
1508.7000, -42.698
1508.8000, -42.770
1508.9000, -42.707
1509.0000, -42.672
1509.1000, -42.507
1509.2000, -42.879
1509.3000, -42.648
1509.4000, -42.811
1509.5000, -42.726
1509.6000, -42.445
1509.7000, -42.328
1509.8000, -42.634
1509.9000, -42.618
1510.0000, -42.537
1510.1000, -42.262
1510.2000, -42.436
1510.3000, -42.601
1510.4000, -42.626
1510.5000, -42.395
1510.6000, -42.426
1510.7000, -42.553
1510.8000, -42.396
1510.9000, -42.385
1511.0000, -42.311
1511.1000, -42.360
1511.2000, -42.390
1511.3000, -42.211
1511.4000, -42.138
1511.5000, -42.392
1511.6000, -42.171
1511.7000, -42.238
1511.8000, -42.063
1511.9000, -42.210
1512.0000, -42.211
1512.1000, -42.141
1512.2000, -42.154
1512.3000, -42.370
1512.4000, -42.202
1512.5000, -42.107
1512.6000, -42.134
1512.7000, -42.147
1512.8000, -42.192
1512.9000, -42.163
1513.0000, -42.147
1513.1000, -42.046
1513.2000, -41.930
1513.3000, -41.865
1513.4000, -42.099
1513.5000, -42.047
1513.6000, -42.214
1513.7000, -41.979
1513.8000, -42.134
1513.9000, -42.033
1514.0000, -42.281
1514.1000, -41.909
1514.2000, -42.071
1514.3000, -41.840
1514.4000, -42.066
1514.5000, -41.893
1514.6000, -42.101
1514.7000, -41.951
1514.8000, -41.933
1514.9000, -41.959
1515.0000, -42.001
1515.1000, -42.039
1515.2000, -41.983
1515.3000, -41.720
1515.4000, -41.922
1515.5000, -42.155
1515.6000, -42.010
1515.7000, -41.737
1515.8000, -42.243
1515.9000, -41.971
1516.0000, -42.131
1516.1000, -42.061
1516.2000, -42.007
1516.3000, -42.078
1516.4000, -41.938
1516.5000, -41.876
1516.6000, -41.917
1516.7000, -42.114
1516.8000, -42.071
1516.9000, -41.886
1517.0000, -42.144
1517.1000, -42.128
1517.2000, -42.070
1517.3000, -42.127
1517.4000, -42.488
1517.5000, -41.944
1517.6000, -42.086
1517.7000, -42.258
1517.8000, -41.874
1517.9000, -42.358
1518.0000, -41.865
1518.1000, -42.217
1518.2000, -42.273
1518.3000, -42.293
1518.4000, -42.315
1518.5000, -42.338
1518.6000, -41.988
1518.7000, -42.012
1518.8000, -42.076
1518.9000, -42.026
1519.0000, -42.190
1519.1000, -42.206
1519.2000, -42.071
1519.3000, -41.888
1519.4000, -42.084
1519.5000, -42.188
1519.6000, -42.203
1519.7000, -42.215
1519.8000, -42.040
1519.9000, -42.368
1520.0000, -42.234
1520.1000, -42.394
1520.2000, -42.471
1520.3000, -42.191
1520.4000, -42.265
1520.5000, -42.417
1520.6000, -42.450
1520.7000, -42.547
1520.8000, -41.978
1520.9000, -42.469
1521.0000, -42.280
1521.1000, -42.097
1521.2000, -42.430
1521.3000, -42.401
1521.4000, -42.608
1521.5000, -42.258
1521.6000, -42.374
1521.7000, -42.338
1521.8000, -42.493
1521.9000, -42.256
1522.0000, -42.286
1522.1000, -42.366
1522.2000, -42.399
1522.3000, -42.280
1522.4000, -42.260
1522.5000, -42.428
1522.6000, -42.336
1522.7000, -42.269
1522.8000, -42.220
1522.9000, -42.307
1523.0000, -42.250
1523.1000, -42.458
1523.2000, -42.233
1523.3000, -42.265
1523.4000, -42.708
1523.5000, -42.580
1523.6000, -42.395
1523.7000, -42.376
1523.8000, -42.577
1523.9000, -42.558
1524.0000, -42.259
1524.1000, -42.325
1524.2000, -42.576
1524.3000, -42.262
1524.4000, -42.477
1524.5000, -42.597
1524.6000, -42.469
1524.7000, -42.753
1524.8000, -42.466
1524.9000, -42.595
1525.0000, -42.681
1525.1000, -42.290
1525.2000, -42.647
1525.3000, -42.523
1525.4000, -42.467
1525.5000, -42.641
1525.6000, -42.423
1525.7000, -42.432
1525.8000, -42.603
1525.9000, -42.388
1526.0000, -42.515
1526.1000, -42.475
1526.2000, -42.535
1526.3000, -42.505
1526.4000, -42.515
1526.5000, -42.364
1526.6000, -42.363
1526.7000, -42.715
1526.8000, -42.353
1526.9000, -42.384
1527.0000, -42.452
1527.1000, -42.351
1527.2000, -42.551
1527.3000, -42.592
1527.4000, -42.773
1527.5000, -42.587
1527.6000, -42.456
1527.7000, -42.369
1527.8000, -42.467
1527.9000, -42.615
1528.0000, -42.514
1528.1000, -42.517
1528.2000, -42.628
1528.3000, -42.432
1528.4000, -43.034
1528.5000, -42.949
1528.6000, -42.693
1528.7000, -42.511
1528.8000, -42.788
1528.9000, -42.827
1529.0000, -42.805
1529.1000, -42.807
1529.2000, -42.953
1529.3000, -42.700
1529.4000, -42.675
1529.5000, -42.916
1529.6000, -42.802
1529.7000, -43.070
1529.8000, -43.221
1529.9000, -42.899
1530.0000, -42.956
1530.1000, -42.798
1530.2000, -42.898
1530.3000, -42.914
1530.4000, -42.885
1530.5000, -42.972
1530.6000, -43.098
1530.7000, -43.068
1530.8000, -42.912
1530.9000, -43.119
1531.0000, -42.952
1531.1000, -42.999
1531.2000, -42.943
1531.3000, -43.234
1531.4000, -43.047
1531.5000, -43.074
1531.6000, -43.039
1531.7000, -43.413
1531.8000, -43.341
1531.9000, -43.084
1532.0000, -43.183
1532.1000, -43.095
1532.2000, -43.162
1532.3000, -43.150
1532.4000, -43.205
1532.5000, -43.524
1532.6000, -43.215
1532.7000, -43.356
1532.8000, -43.330
1532.9000, -43.448
1533.0000, -43.324
1533.1000, -43.503
1533.2000, -43.459
1533.3000, -43.500
1533.4000, -43.241
1533.5000, -43.598
1533.6000, -43.630
1533.7000, -43.725
1533.8000, -43.806
1533.9000, -43.734
1534.0000, -43.821
1534.1000, -43.593
1534.2000, -43.453
1534.3000, -43.672
1534.4000, -44.052
1534.5000, -43.690
1534.6000, -43.632
1534.7000, -43.541
1534.8000, -43.774
1534.9000, -44.074
1535.0000, -44.114
1535.1000, -43.917
1535.2000, -43.997
1535.3000, -43.631
1535.4000, -44.001
1535.5000, -43.846
1535.6000, -43.980
1535.7000, -43.861
1535.8000, -44.022
1535.9000, -43.957
1536.0000, -43.738
1536.1000, -44.226
1536.2000, -43.946
1536.3000, -44.269
1536.4000, -44.346
1536.5000, -44.186
1536.6000, -44.670
1536.7000, -44.148
1536.8000, -44.153
1536.9000, -44.111
1537.0000, -44.230
1537.1000, -44.343
1537.2000, -44.270
1537.3000, -44.286
1537.4000, -44.290
1537.5000, -44.473
1537.6000, -44.341
1537.7000, -44.286
1537.8000, -44.320
1537.9000, -44.479
1538.0000, -44.423
1538.1000, -44.669
1538.2000, -44.499
1538.3000, -44.585
1538.4000, -44.719
1538.5000, -44.591
1538.6000, -44.243
1538.7000, -44.367
1538.8000, -44.685
1538.9000, -44.708
1539.0000, -44.747
1539.1000, -44.459
1539.2000, -44.977
1539.3000, -44.773
1539.4000, -44.743
1539.5000, -44.570
1539.6000, -44.520
1539.7000, -44.864
1539.8000, -44.905
1539.9000, -44.446
1540.0000, -44.795
1540.1000, -44.650
1540.2000, -44.703
1540.3000, -44.640
1540.4000, -45.006
1540.5000, -44.879
1540.6000, -44.617
1540.7000, -44.910
1540.8000, -44.838
1540.9000, -45.025
1541.0000, -44.905
1541.1000, -45.078
1541.2000, -44.569
1541.3000, -44.920
1541.4000, -44.771
1541.5000, -44.777
1541.6000, -44.760
1541.7000, -44.865
1541.8000, -44.854
1541.9000, -44.704
1542.0000, -44.962
1542.1000, -45.002
1542.2000, -44.561
1542.3000, -44.651
1542.4000, -44.870
1542.5000, -44.698
1542.6000, -44.848
1542.7000, -44.779
1542.8000, -44.945
1542.9000, -44.872
1543.0000, -44.682
1543.1000, -44.862
1543.2000, -44.706
1543.3000, -44.974
1543.4000, -44.966
1543.5000, -44.836
1543.6000, -44.866
1543.7000, -44.996
1543.8000, -44.924
1543.9000, -44.703
1544.0000, -44.683
1544.1000, -44.860
1544.2000, -44.580
1544.3000, -44.942
1544.4000, -44.821
1544.5000, -44.648
1544.6000, -44.673
1544.7000, -44.884
1544.8000, -44.676
1544.9000, -44.563
1545.0000, -44.839
1545.1000, -45.056
1545.2000, -44.964
1545.3000, -44.833
1545.4000, -44.877
1545.5000, -44.923
1545.6000, -44.765
1545.7000, -44.636
1545.8000, -44.808
1545.9000, -44.928
1546.0000, -44.506
1546.1000, -44.890
1546.2000, -44.796
1546.3000, -44.592
1546.4000, -44.487
1546.5000, -44.618
1546.6000, -44.924
1546.7000, -44.832
1546.8000, -44.621
1546.9000, -44.738
1547.0000, -44.722
1547.1000, -44.366
1547.2000, -44.582
1547.3000, -44.428
1547.4000, -44.591
1547.5000, -44.533
1547.6000, -44.580
1547.7000, -44.523
1547.8000, -44.416
1547.9000, -44.279
1548.0000, -44.402
1548.1000, -44.185
1548.2000, -44.349
1548.3000, -44.240
1548.4000, -44.373
1548.5000, -44.484
1548.6000, -44.162
1548.7000, -44.448
1548.8000, -44.291
1548.9000, -44.291
1549.0000, -44.251
1549.1000, -44.202
1549.2000, -44.119
1549.3000, -44.261
1549.4000, -44.099
1549.5000, -44.241
1549.6000, -44.249
1549.7000, -44.339
1549.8000, -44.309
1549.9000, -44.183
1550.0000, -43.995
1550.1000, -44.186
1550.2000, -44.034
1550.3000, -44.258
1550.4000, -44.138
1550.5000, -44.119
1550.6000, -44.137
1550.7000, -44.152
1550.8000, -44.197
1550.9000, -44.079
1551.0000, -44.073
1551.1000, -43.966
1551.2000, -43.674
1551.3000, -43.950
1551.4000, -43.974
1551.5000, -44.055
1551.6000, -43.920
1551.7000, -43.699
1551.8000, -43.621
1551.9000, -43.751
1552.0000, -44.035
1552.1000, -43.750
1552.2000, -43.896
1552.3000, -43.541
1552.4000, -43.725
1552.5000, -43.682
1552.6000, -43.747
1552.7000, -43.903
1552.8000, -43.511
1552.9000, -43.796
1553.0000, -43.391
1553.1000, -43.696
1553.2000, -43.606
1553.3000, -43.912
1553.4000, -43.985
1553.5000, -43.470
1553.6000, -43.529
1553.7000, -43.817
1553.8000, -43.657
1553.9000, -43.534
1554.0000, -43.687
1554.1000, -43.897
1554.2000, -43.712
1554.3000, -43.435
1554.4000, -43.707
1554.5000, -43.677
1554.6000, -43.455
1554.7000, -43.330
1554.8000, -43.532
1554.9000, -43.720
1555.0000, -43.420
1555.1000, -43.708
1555.2000, -43.698
1555.3000, -43.435
1555.4000, -43.591
1555.5000, -43.716
1555.6000, -43.375
1555.7000, -43.725
1555.8000, -43.607
1555.9000, -43.441
1556.0000, -43.603
1556.1000, -43.506
1556.2000, -43.546
1556.3000, -43.481
1556.4000, -43.793
1556.5000, -43.424
1556.6000, -43.519
1556.7000, -43.747
1556.8000, -43.493
1556.9000, -43.353
1557.0000, -43.440
1557.1000, -43.546
1557.2000, -43.354
1557.3000, -43.583
1557.4000, -43.418
1557.5000, -43.723
1557.6000, -43.787
1557.7000, -43.692
1557.8000, -43.781
1557.9000, -43.560
1558.0000, -43.861
1558.1000, -43.827
1558.2000, -44.033
1558.3000, -43.555
1558.4000, -43.617
1558.5000, -43.826
1558.6000, -43.837
1558.7000, -43.815
1558.8000, -43.918
1558.9000, -43.604
1559.0000, -43.965
1559.1000, -43.858
1559.2000, -43.815
1559.3000, -43.552
1559.4000, -43.973
1559.5000, -44.013
1559.6000, -43.823
1559.7000, -44.024
1559.8000, -44.128
1559.9000, -43.947
1560.0000, -44.030
1560.1000, -43.750
1560.2000, -43.979
1560.3000, -43.947
1560.4000, -43.878
1560.5000, -44.068
1560.6000, -44.268
1560.7000, -44.119
1560.8000, -44.269
1560.9000, -44.308
1561.0000, -43.996
1561.1000, -44.173
1561.2000, -44.261
1561.3000, -44.065
1561.4000, -44.454
1561.5000, -44.260
1561.6000, -44.258
1561.7000, -44.353
1561.8000, -44.410
1561.9000, -44.551
1562.0000, -44.594
1562.1000, -44.441
1562.2000, -44.550
1562.3000, -44.409
1562.4000, -44.397
1562.5000, -44.502
1562.6000, -44.481
1562.7000, -44.553
1562.8000, -44.821
1562.9000, -44.583
1563.0000, -44.546
1563.1000, -44.566
1563.2000, -44.464
1563.3000, -44.716
1563.4000, -44.552
1563.5000, -44.671
1563.6000, -44.803
1563.7000, -44.508
1563.8000, -44.689
1563.9000, -44.585
1564.0000, -44.875
1564.1000, -44.759
1564.2000, -44.769
1564.3000, -44.985
1564.4000, -44.875
1564.5000, -44.852
1564.6000, -45.053
1564.7000, -44.873
1564.8000, -44.822
1564.9000, -45.055
1565.0000, -45.247
1565.1000, -44.864
1565.2000, -44.895
1565.3000, -44.785
1565.4000, -45.015
1565.5000, -44.976
1565.6000, -45.067
1565.7000, -44.990
1565.8000, -45.114
1565.9000, -45.231
1566.0000, -45.341
1566.1000, -45.029
1566.2000, -44.949
1566.3000, -45.027
1566.4000, -45.253
1566.5000, -45.104
1566.6000, -45.208
1566.7000, -45.095
1566.8000, -45.086
1566.9000, -45.587
1567.0000, -45.326
1567.1000, -45.356
1567.2000, -45.198
1567.3000, -45.246
1567.4000, -45.235
1567.5000, -45.200
1567.6000, -45.391
1567.7000, -45.452
1567.8000, -45.260
1567.9000, -45.189
1568.0000, -45.691
1568.1000, -45.435
1568.2000, -45.581
1568.3000, -45.527
1568.4000, -45.448
1568.5000, -45.560
1568.6000, -45.331
1568.7000, -45.830
1568.8000, -45.791
1568.9000, -45.427
1569.0000, -45.543
1569.1000, -45.458
1569.2000, -45.630
1569.3000, -45.628
1569.4000, -45.757
1569.5000, -45.768
1569.6000, -45.455
1569.7000, -45.936
1569.8000, -45.899
1569.9000, -45.739
1570.0000, -46.089
1570.1000, -46.054
1570.2000, -46.127
1570.3000, -45.980
1570.4000, -45.931
1570.5000, -45.992
1570.6000, -45.853
1570.7000, -46.083
1570.8000, -45.942
1570.9000, -46.044
1571.0000, -45.990
1571.1000, -46.255
1571.2000, -46.020
1571.3000, -46.012
1571.4000, -46.360
1571.5000, -46.552
1571.6000, -46.043
1571.7000, -46.306
1571.8000, -46.453
1571.9000, -46.502
1572.0000, -46.145
1572.1000, -46.310
1572.2000, -46.183
1572.3000, -46.178
1572.4000, -46.536
1572.5000, -46.453
1572.6000, -46.552
1572.7000, -46.555
1572.8000, -46.527
1572.9000, -46.864
1573.0000, -46.351
1573.1000, -46.503
1573.2000, -46.736
1573.3000, -46.929
1573.4000, -46.730
1573.5000, -46.789
1573.6000, -46.997
1573.7000, -46.760
1573.8000, -46.945
1573.9000, -46.836
1574.0000, -46.846
1574.1000, -47.047
1574.2000, -46.817
1574.3000, -47.221
1574.4000, -46.849
1574.5000, -47.068
1574.6000, -46.907
1574.7000, -47.056
1574.8000, -47.016
1574.9000, -47.096
1575.0000, -47.201
1575.1000, -47.325
1575.2000, -47.347
1575.3000, -46.834
1575.4000, -47.122
1575.5000, -47.343
1575.6000, -47.375
1575.7000, -47.372
1575.8000, -47.386
1575.9000, -47.066
1576.0000, -47.001
1576.1000, -47.727
1576.2000, -47.622
1576.3000, -47.522
1576.4000, -47.558
1576.5000, -47.691
1576.6000, -47.443
1576.7000, -47.670
1576.8000, -47.490
1576.9000, -47.725
1577.0000, -47.424
1577.1000, -47.724
1577.2000, -47.694
1577.3000, -47.391
1577.4000, -47.750
1577.5000, -47.390
1577.6000, -47.718
1577.7000, -47.496
1577.8000, -47.659
1577.9000, -47.851
1578.0000, -47.927
1578.1000, -47.832
1578.2000, -47.535
1578.3000, -47.941
1578.4000, -47.821
1578.5000, -48.003
1578.6000, -47.965
1578.7000, -47.839
1578.8000, -47.955
1578.9000, -48.088
1579.0000, -47.764
1579.1000, -48.140
1579.2000, -48.081
1579.3000, -47.802
1579.4000, -48.103
1579.5000, -47.783
1579.6000, -47.874
1579.7000, -47.915
1579.8000, -47.789
1579.9000, -47.750
1580.0000, -47.742
1580.1000, -47.957
1580.2000, -47.834
1580.3000, -47.769
1580.4000, -47.571
1580.5000, -47.351
1580.6000, -47.745
1580.7000, -47.885
1580.8000, -47.622
1580.9000, -48.035
1581.0000, -47.695
1581.1000, -47.629
1581.2000, -47.431
1581.3000, -47.862
1581.4000, -47.669
1581.5000, -47.507
1581.6000, -47.711
1581.7000, -47.952
1581.8000, -47.742
1581.9000, -47.710
1582.0000, -47.823
1582.1000, -47.674
1582.2000, -47.758
1582.3000, -47.507
1582.4000, -47.805
1582.5000, -47.779
1582.6000, -47.631
1582.7000, -47.666
1582.8000, -47.665
1582.9000, -47.273
1583.0000, -47.485
1583.1000, -47.459
1583.2000, -47.573
1583.3000, -47.508
1583.4000, -47.249
1583.5000, -47.547
1583.6000, -47.502
1583.7000, -47.419
1583.8000, -47.652
1583.9000, -47.688
1584.0000, -47.398
1584.1000, -47.266
1584.2000, -47.354
1584.3000, -47.482
1584.4000, -47.008
1584.5000, -47.175
1584.6000, -47.453
1584.7000, -47.124
1584.8000, -47.166
1584.9000, -47.241
1585.0000, -47.385
1585.1000, -47.155
1585.2000, -47.340
1585.3000, -47.032
1585.4000, -47.013
1585.5000, -47.227
1585.6000, -47.312
1585.7000, -46.767
1585.8000, -46.927
1585.9000, -47.107
1586.0000, -47.274
1586.1000, -47.251
1586.2000, -47.293
1586.3000, -47.224
1586.4000, -46.982
1586.5000, -46.960
1586.6000, -47.124
1586.7000, -47.048
1586.8000, -47.061
1586.9000, -47.227
1587.0000, -46.619
1587.1000, -46.900
1587.2000, -46.827
1587.3000, -47.188
1587.4000, -46.691
1587.5000, -47.157
1587.6000, -47.086
1587.7000, -47.191
1587.8000, -47.045
1587.9000, -47.173
1588.0000, -47.098
1588.1000, -47.186
1588.2000, -46.982
1588.3000, -46.723
1588.4000, -46.811
1588.5000, -47.007
1588.6000, -46.959
1588.7000, -46.856
1588.8000, -47.242
1588.9000, -47.031
1589.0000, -46.758
1589.1000, -46.798
1589.2000, -47.160
1589.3000, -46.975
1589.4000, -46.802
1589.5000, -46.848
1589.6000, -46.889
1589.7000, -47.203
1589.8000, -46.952
1589.9000, -46.852
1590.0000, -46.776
1590.1000, -46.807
1590.2000, -46.606
1590.3000, -46.650
1590.4000, -46.862
1590.5000, -46.851
1590.6000, -46.764
1590.7000, -46.761
1590.8000, -46.906
1590.9000, -46.717
1591.0000, -46.889
1591.1000, -46.853
1591.2000, -46.662
1591.3000, -46.805
1591.4000, -46.760
1591.5000, -46.593
1591.6000, -46.825
1591.7000, -47.033
1591.8000, -46.737
1591.9000, -46.487
1592.0000, -46.761
1592.1000, -46.872
1592.2000, -46.849
1592.3000, -46.686
1592.4000, -46.642
1592.5000, -46.579
1592.6000, -46.514
1592.7000, -46.542
1592.8000, -46.668
1592.9000, -46.758
1593.0000, -46.691
1593.1000, -46.691
1593.2000, -46.686
1593.3000, -46.492
1593.4000, -46.709
1593.5000, -46.565
1593.6000, -46.589
1593.7000, -46.702
1593.8000, -46.570
1593.9000, -46.575
1594.0000, -46.452
1594.1000, -46.771
1594.2000, -46.691
1594.3000, -46.524
1594.4000, -46.606
1594.5000, -46.837
1594.6000, -46.191
1594.7000, -46.546
1594.8000, -46.334
1594.9000, -46.859
1595.0000, -46.575
1595.1000, -46.647
1595.2000, -46.417
1595.3000, -46.402
1595.4000, -46.184
1595.5000, -46.567
1595.6000, -46.882
1595.7000, -46.595
1595.8000, -46.617
1595.9000, -46.667
1596.0000, -46.275
1596.1000, -46.446
1596.2000, -46.164
1596.3000, -46.445
1596.4000, -46.491
1596.5000, -46.595
1596.6000, -46.302
1596.7000, -46.791
1596.8000, -46.442
1596.9000, -46.718
1597.0000, -46.430
1597.1000, -46.491
1597.2000, -46.390
1597.3000, -46.499
1597.4000, -46.489
1597.5000, -46.668
1597.6000, -46.807
1597.7000, -46.331
1597.8000, -46.318
1597.9000, -46.970
1598.0000, -46.565
1598.1000, -46.778
1598.2000, -46.757
1598.3000, -46.477
1598.4000, -46.346
1598.5000, -46.743
1598.6000, -46.459
1598.7000, -46.998
1598.8000, -46.728
1598.9000, -46.691
1599.0000, -46.796
1599.1000, -46.668
1599.2000, -46.479
1599.3000, -46.709
1599.4000, -46.661
1599.5000, -47.042
1599.6000, -46.713
1599.7000, -46.823
1599.8000, -46.895
1599.9000, -46.654
1600.0000, -46.640
1600.1000, -46.941
1600.2000, -46.681
1600.3000, -46.923
1600.4000, -46.921
1600.5000, -46.732
1600.6000, -47.017
1600.7000, -47.291
1600.8000, -47.192
1600.9000, -47.105
1601.0000, -47.369
1601.1000, -46.832
1601.2000, -46.667
1601.3000, -46.770
1601.4000, -46.997
1601.5000, -47.021
1601.6000, -46.658
1601.7000, -46.818
1601.8000, -47.409
1601.9000, -47.235
1602.0000, -46.983
1602.1000, -47.109
1602.2000, -47.250
1602.3000, -47.460
1602.4000, -47.324
1602.5000, -47.191
1602.6000, -47.226
1602.7000, -47.396
1602.8000, -47.249
1602.9000, -47.269
1603.0000, -47.288
1603.1000, -47.196
1603.2000, -47.251
1603.3000, -47.307
1603.4000, -47.469
1603.5000, -47.202
1603.6000, -47.670
1603.7000, -47.684
1603.8000, -47.891
1603.9000, -47.561
1604.0000, -47.902
1604.1000, -47.983
1604.2000, -47.997
1604.3000, -47.597
1604.4000, -47.615
1604.5000, -48.267
1604.6000, -48.134
1604.7000, -47.777
1604.8000, -47.907
1604.9000, -47.927
1605.0000, -47.984
1605.1000, -48.171
1605.2000, -47.887
1605.3000, -48.332
1605.4000, -47.951
1605.5000, -48.217
1605.6000, -47.928
1605.7000, -48.237
1605.8000, -47.950
1605.9000, -48.179
1606.0000, -48.542
1606.1000, -48.259
1606.2000, -48.395
1606.3000, -48.627
1606.4000, -48.487
1606.5000, -48.568
1606.6000, -48.286
1606.7000, -48.552
1606.8000, -48.349
1606.9000, -48.673
1607.0000, -48.743
1607.1000, -48.952
1607.2000, -49.021
1607.3000, -48.811
1607.4000, -48.775
1607.5000, -48.865
1607.6000, -49.065
1607.7000, -48.643
1607.8000, -49.198
1607.9000, -48.998
1608.0000, -48.903
1608.1000, -49.148
1608.2000, -48.787
1608.3000, -48.736
1608.4000, -48.985
1608.5000, -49.340
1608.6000, -49.378
1608.7000, -49.151
1608.8000, -49.148
1608.9000, -49.421
1609.0000, -49.128
1609.1000, -49.585
1609.2000, -49.337
1609.3000, -49.816
1609.4000, -49.143
1609.5000, -49.376
1609.6000, -49.207
1609.7000, -49.340
1609.8000, -49.401
1609.9000, -49.517
1610.0000, -49.782
1610.1000, -49.732
1610.2000, -49.611
1610.3000, -49.768
1610.4000, -50.276
1610.5000, -49.968
1610.6000, -49.843
1610.7000, -50.230
1610.8000, -49.912
1610.9000, -50.292
1611.0000, -49.854
1611.1000, -49.740
1611.2000, -50.224
1611.3000, -50.186
1611.4000, -49.825
1611.5000, -50.727
1611.6000, -50.442
1611.7000, -50.460
1611.8000, -50.544
1611.9000, -50.399
1612.0000, -50.750
1612.1000, -50.464
1612.2000, -50.995
1612.3000, -50.670
1612.4000, -50.406
1612.5000, -50.839
1612.6000, -50.719
1612.7000, -51.197
1612.8000, -50.893
1612.9000, -51.268
1613.0000, -50.848
1613.1000, -51.368
1613.2000, -50.960
1613.3000, -51.438
1613.4000, -51.295
1613.5000, -51.043
1613.6000, -51.334
1613.7000, -51.262
1613.8000, -51.137
1613.9000, -51.478
1614.0000, -51.752
1614.1000, -51.916
1614.2000, -51.622
1614.3000, -51.329
1614.4000, -51.867
1614.5000, -51.501
1614.6000, -51.760
1614.7000, -51.587
1614.8000, -52.247
1614.9000, -52.074
1615.0000, -51.778
1615.1000, -51.790
1615.2000, -51.810
1615.3000, -52.238
1615.4000, -51.579
1615.5000, -51.661
1615.6000, -51.890
1615.7000, -51.796
1615.8000, -51.898
1615.9000, -52.388
1616.0000, -52.053
1616.1000, -52.247
1616.2000, -52.192
1616.3000, -52.016
1616.4000, -52.054
1616.5000, -52.631
1616.6000, -52.382
1616.7000, -52.493
1616.8000, -52.466
1616.9000, -52.756
1617.0000, -52.435
1617.1000, -53.001
1617.2000, -52.638
1617.3000, -52.887
1617.4000, -52.317
1617.5000, -52.801
1617.6000, -52.878
1617.7000, -52.545
1617.8000, -52.977
1617.9000, -52.742
1618.0000, -52.861
1618.1000, -52.592
1618.2000, -53.119
1618.3000, -53.277
1618.4000, -53.379
1618.5000, -53.510
1618.6000, -52.949
1618.7000, -52.958
1618.8000, -53.075
1618.9000, -53.000
1619.0000, -52.885
1619.1000, -53.131
1619.2000, -53.289
1619.3000, -53.032
1619.4000, -52.894
1619.5000, -52.693
1619.6000, -53.230
1619.7000, -53.269
1619.8000, -53.146
1619.9000, -53.057
1620.0000, -53.225
1620.1000, -52.940
1620.2000, -53.454
1620.3000, -53.352
1620.4000, -53.932
1620.5000, -53.284
1620.6000, -53.123
1620.7000, -53.527
1620.8000, -53.265
1620.9000, -53.677
1621.0000, -53.050
1621.1000, -52.951
1621.2000, -53.527
1621.3000, -53.381
1621.4000, -53.678
1621.5000, -53.358
1621.6000, -53.518
1621.7000, -53.403
1621.8000, -53.595
1621.9000, -53.558
1622.0000, -54.072
1622.1000, -53.331
1622.2000, -53.963
1622.3000, -53.375
1622.4000, -53.748
1622.5000, -54.012
1622.6000, -53.450
1622.7000, -53.431
1622.8000, -53.399
1622.9000, -53.748
1623.0000, -53.480
1623.1000, -53.599
1623.2000, -53.553
1623.3000, -53.549
1623.4000, -53.127
1623.5000, -53.529
1623.6000, -53.742
1623.7000, -53.884
1623.8000, -53.129
1623.9000, -54.163
1624.0000, -53.314
1624.1000, -53.771
1624.2000, -53.646
1624.3000, -53.214
1624.4000, -53.444
1624.5000, -53.829
1624.6000, -53.548
1624.7000, -53.778
1624.8000, -53.554
1624.9000, -53.450
1625.0000, -53.316
1625.1000, -53.482
1625.2000, -53.435
1625.3000, -53.430
1625.4000, -53.157
1625.5000, -53.147
1625.6000, -53.852
1625.7000, -53.755
1625.8000, -53.730
1625.9000, -53.427
1626.0000, -52.806
1626.1000, -53.529
1626.2000, -53.722
1626.3000, -53.410
1626.4000, -53.898
1626.5000, -53.179
1626.6000, -53.234
1626.7000, -53.136
1626.8000, -53.341
1626.9000, -53.282
1627.0000, -53.193
1627.1000, -53.170
1627.2000, -53.705
1627.3000, -53.414
1627.4000, -53.340
1627.5000, -53.715
1627.6000, -53.582
1627.7000, -53.475
1627.8000, -53.676
1627.9000, -53.660
1628.0000, -53.482
1628.1000, -53.235
1628.2000, -53.150
1628.3000, -53.225
1628.4000, -53.750
1628.5000, -53.618
1628.6000, -53.381
1628.7000, -53.260
1628.8000, -53.779
1628.9000, -54.058
1629.0000, -53.533
1629.1000, -53.681
1629.2000, -54.245
1629.3000, -52.885
1629.4000, -53.745
1629.5000, -53.185
1629.6000, -53.619
1629.7000, -54.161
1629.8000, -54.077
1629.9000, -53.904
1630.0000, -53.643
1630.1000, -53.618
1630.2000, -53.225
1630.3000, -53.209
1630.4000, -53.538
1630.5000, -54.189
1630.6000, -53.971
1630.7000, -53.597
1630.8000, -53.983
1630.9000, -53.883
1631.0000, -54.043
1631.1000, -53.570
1631.2000, -53.619
1631.3000, -54.278
1631.4000, -54.291
1631.5000, -53.764
1631.6000, -53.643
1631.7000, -53.776
1631.8000, -54.257
1631.9000, -54.368
1632.0000, -54.357
1632.1000, -53.581
1632.2000, -53.779
1632.3000, -53.555
1632.4000, -55.658
1632.5000, -53.901
1632.6000, -53.583
1632.7000, -54.090
1632.8000, -54.513
1632.9000, -54.378
1633.0000, -54.642
1633.1000, -54.780
1633.2000, -54.439
1633.3000, -54.832
1633.4000, -54.805
1633.5000, -54.677
1633.6000, -54.869
1633.7000, -54.858
1633.8000, -54.309
1633.9000, -54.754
1634.0000, -54.821
1634.1000, -55.191
1634.2000, -54.966
1634.3000, -54.888
1634.4000, -54.737
1634.5000, -54.493
1634.6000, -54.779
1634.7000, -54.984
1634.8000, -54.928
1634.9000, -54.487
1635.0000, -55.227
1635.1000, -55.534
1635.2000, -54.590
1635.3000, -54.384
1635.4000, -55.180
1635.5000, -54.825
1635.6000, -54.787
1635.7000, -56.129
1635.8000, -55.587
1635.9000, -55.534
1636.0000, -55.592
1636.1000, -55.546
1636.2000, -55.332
1636.3000, -55.859
1636.4000, -56.289
1636.5000, -55.726
1636.6000, -55.682
1636.7000, -56.154
1636.8000, -55.186
1636.9000, -55.645
1637.0000, -55.682
1637.1000, -56.403
1637.2000, -56.032
1637.3000, -55.955
1637.4000, -56.246
1637.5000, -56.220
1637.6000, -57.460
1637.7000, -56.183
1637.8000, -56.073
1637.9000, -55.580
1638.0000, -56.217
1638.1000, -56.192
1638.2000, -55.962
1638.3000, -56.083
1638.4000, -56.585
1638.5000, -56.485
1638.6000, -57.099
1638.7000, -56.263
1638.8000, -56.425
1638.9000, -55.533
1639.0000, -55.931
1639.1000, -56.516
1639.2000, -56.434
1639.3000, -55.950
1639.4000, -56.774
1639.5000, -56.645
1639.6000, -56.281
1639.7000, -55.948
1639.8000, -57.006
1639.9000, -56.854
1640.0000, -57.090
1640.1000, -57.283
1640.2000, -57.076
1640.3000, -55.916
1640.4000, -57.091
1640.5000, -57.025
1640.6000, -57.403
1640.7000, -56.988
1640.8000, -57.844
1640.9000, -57.069
1641.0000, -56.475
1641.1000, -57.859
1641.2000, -57.916
1641.3000, -57.629
1641.4000, -57.620
1641.5000, -57.212
1641.6000, -57.649
1641.7000, -58.210
1641.8000, -57.629
1641.9000, -57.549
1642.0000, -58.606
1642.1000, -58.301
1642.2000, -58.426
1642.3000, -58.066
1642.4000, -57.506
1642.5000, -58.668
1642.6000, -57.885
1642.7000, -58.437
1642.8000, -57.699
1642.9000, -57.810
1643.0000, -57.406
1643.1000, -58.270
1643.2000, -57.791
1643.3000, -57.798
1643.4000, -58.226
1643.5000, -57.991
1643.6000, -56.808
1643.7000, -58.420
1643.8000, -59.054
1643.9000, -58.680
1644.0000, -58.392
1644.1000, -59.684
1644.2000, -58.111
1644.3000, -58.222
1644.4000, -59.115
1644.5000, -58.000
1644.6000, -58.905
1644.7000, -59.256
1644.8000, -59.639
1644.9000, -58.849
1645.0000, -58.748
1645.1000, -58.781
1645.2000, -58.116
1645.3000, -58.494
1645.4000, -58.241
1645.5000, -59.272
1645.6000, -59.580
1645.7000, -58.223
1645.8000, -58.633
1645.9000, -59.408
1646.0000, -59.057
1646.1000, -58.460
1646.2000, -59.751
1646.3000, -59.257
1646.4000, -58.696
1646.5000, -58.295
1646.6000, -59.446
1646.7000, -58.871
1646.8000, -58.866
1646.9000, -58.978
1647.0000, -60.943
1647.1000, -59.484
1647.2000, -61.202
1647.3000, -59.667
1647.4000, -60.463
1647.5000, -58.596
1647.6000, -58.502
1647.7000, -60.031
1647.8000, -60.842
1647.9000, -60.122
1648.0000, -59.936
1648.1000, -60.363
1648.2000, -60.967
1648.3000, -59.440
1648.4000, -60.868
1648.5000, -59.803
1648.6000, -60.750
1648.7000, -61.205
1648.8000, -60.158
1648.9000, -60.979
1649.0000, -60.474
1649.1000, -60.874
1649.2000, -60.456
1649.3000, -61.140
1649.4000, -61.039
1649.5000, -61.220
1649.6000, -60.798
1649.7000, -60.357
1649.8000, -61.793
1649.9000, -60.803
1650.0000, -59.571
1650.1000, -61.955
1650.2000, -61.483
1650.3000, -61.456
1650.4000, -60.733
1650.5000, -61.254
1650.6000, -60.899
1650.7000, -61.620
1650.8000, -62.259
1650.9000, -62.030
1651.0000, -62.476
1651.1000, -62.490
1651.2000, -61.239
1651.3000, -61.588
1651.4000, -61.306
1651.5000, -62.523
1651.6000, -64.385
1651.7000, -63.616
1651.8000, -62.571
1651.9000, -62.920
1652.0000, -62.740
1652.1000, -61.781
1652.2000, -61.474
1652.3000, -63.558
1652.4000, -62.983
1652.5000, -61.647
1652.6000, -62.388
1652.7000, -61.657
1652.8000, -62.034
1652.9000, -62.502
1653.0000, -63.363
1653.1000, -62.509
1653.2000, -62.657
1653.3000, -61.610
1653.4000, -63.356
1653.5000, -63.511
1653.6000, -63.128
1653.7000, -63.469
1653.8000, -62.560
1653.9000, -64.333
1654.0000, -63.113
1654.1000, -63.401
1654.2000, -63.344
1654.3000, -63.160
1654.4000, -63.303
1654.5000, -65.699
1654.6000, -63.864
1654.7000, -63.801
1654.8000, -63.409
1654.9000, -64.235
1655.0000, -63.444
1655.1000, -64.952
1655.2000, -64.377
1655.3000, -65.433
1655.4000, -64.012
1655.5000, -63.889
1655.6000, -64.475
1655.7000, -63.712
1655.8000, -64.894
1655.9000, -63.700
1656.0000, -64.107
1656.1000, -65.266
1656.2000, -64.260
1656.3000, -64.481
1656.4000, -64.757
1656.5000, -63.811
1656.6000, -64.423
1656.7000, -63.700
1656.8000, -65.667
1656.9000, -65.035
1657.0000, -66.037
1657.1000, -64.290
1657.2000, -64.299
1657.3000, -64.245
1657.4000, -65.230
1657.5000, -64.892
1657.6000, -65.347
1657.7000, -65.246
1657.8000, -63.648
1657.9000, -65.000
1658.0000, -64.193
1658.1000, -65.216
1658.2000, -64.177
1658.3000, -65.303
1658.4000, -64.897
1658.5000, -65.712
1658.6000, -64.786
1658.7000, -65.575
1658.8000, -65.113
1658.9000, -65.258
1659.0000, -66.221
1659.1000, -65.669
1659.2000, -66.131
1659.3000, -65.284
1659.4000, -64.731
1659.5000, -65.634
1659.6000, -65.224
1659.7000, -65.262
1659.8000, -65.799
1659.9000, -65.051
1660.0000, -65.209
1660.1000, -65.222
1660.2000, -66.464
1660.3000, -64.633
1660.4000, -66.408
1660.5000, -64.903
1660.6000, -65.856
1660.7000, -65.345
1660.8000, -66.258
1660.9000, -64.811
1661.0000, -65.674
1661.1000, -64.961
1661.2000, -66.033
1661.3000, -65.677
1661.4000, -65.822
1661.5000, -65.615
1661.6000, -64.415
1661.7000, -66.787
1661.8000, -66.006
1661.9000, -65.320
1662.0000, -65.749
1662.1000, -66.314
1662.2000, -65.788
1662.3000, -65.280
1662.4000, -69.351
1662.5000, -64.824
1662.6000, -66.438
1662.7000, -65.764
1662.8000, -66.859
1662.9000, -66.423
1663.0000, -65.140
1663.1000, -64.976
1663.2000, -66.269
1663.3000, -66.010
1663.4000, -66.055
1663.5000, -66.026
1663.6000, -64.988
1663.7000, -65.979
1663.8000, -64.528
1663.9000, -66.066
1664.0000, -67.265
1664.1000, -64.928
1664.2000, -67.418
1664.3000, -67.176
1664.4000, -64.737
1664.5000, -65.862
1664.6000, -67.880
1664.7000, -65.638
1664.8000, -66.104
1664.9000, -65.270
1665.0000, -65.372
1665.1000, -65.802
1665.2000, -65.344
1665.3000, -65.784
1665.4000, -66.361
1665.5000, -65.605
1665.6000, -66.088
1665.7000, -64.950
1665.8000, -66.128
1665.9000, -65.356
1666.0000, -66.010
1666.1000, -65.659
1666.2000, -65.314
1666.3000, -65.230
1666.4000, -65.958
1666.5000, -65.010
1666.6000, -64.858
1666.7000, -66.123
1666.8000, -66.454
1666.9000, -66.234
1667.0000, -65.700
1667.1000, -64.680
1667.2000, -65.426
1667.3000, -66.200
1667.4000, -65.385
1667.5000, -65.828
1667.6000, -64.974
1667.7000, -64.785
1667.8000, -65.406
1667.9000, -65.949
1668.0000, -66.612
1668.1000, -64.702
1668.2000, -66.070
1668.3000, -64.299
1668.4000, -65.875
1668.5000, -65.627
1668.6000, -65.315
1668.7000, -65.456
1668.8000, -66.147
1668.9000, -66.218
1669.0000, -66.404
1669.1000, -65.246
1669.2000, -67.001
1669.3000, -66.421
1669.4000, -65.856
1669.5000, -66.030
1669.6000, -65.378
1669.7000, -64.869
1669.8000, -65.805
1669.9000, -67.073
1670.0000, -66.207
1670.1000, -65.372
1670.2000, -66.047
1670.3000, -65.097
1670.4000, -64.378
1670.5000, -66.971
1670.6000, -65.889
1670.7000, -64.848
1670.8000, -65.377
1670.9000, -65.336
1671.0000, -65.447
1671.1000, -66.109
1671.2000, -64.839
1671.3000, -64.552
1671.4000, -65.171
1671.5000, -64.744
1671.6000, -63.979
1671.7000, -64.780
1671.8000, -64.204
1671.9000, -67.828
1672.0000, -65.097
1672.1000, -66.656
1672.2000, -64.970
1672.3000, -65.240
1672.4000, -66.371
1672.5000, -64.884
1672.6000, -65.376
1672.7000, -65.307
1672.8000, -65.211
1672.9000, -64.357
1673.0000, -65.455
1673.1000, -65.281
1673.2000, -65.330
1673.3000, -65.180
1673.4000, -64.740
1673.5000, -65.954
1673.6000, -64.727
1673.7000, -65.044
1673.8000, -65.323
1673.9000, -64.953
1674.0000, -65.581
1674.1000, -65.553
1674.2000, -65.240
1674.3000, -64.593
1674.4000, -64.334
1674.5000, -64.977
1674.6000, -64.142
1674.7000, -64.020
1674.8000, -65.615
1674.9000, -65.912
1675.0000, -65.036
1675.1000, -64.817
1675.2000, -65.862
1675.3000, -65.315
1675.4000, -64.344
1675.5000, -64.650
1675.6000, -65.311
1675.7000, -65.644
1675.8000, -63.970
1675.9000, -65.513
1676.0000, -64.751
1676.1000, -63.914
1676.2000, -64.607
1676.3000, -65.776
1676.4000, -64.567
1676.5000, -64.321
1676.6000, -65.218
1676.7000, -66.219
1676.8000, -64.079
1676.9000, -64.829
1677.0000, -63.437
1677.1000, -64.793
1677.2000, -65.181
1677.3000, -64.246
1677.4000, -64.846
1677.5000, -67.062
1677.6000, -63.354
1677.7000, -65.377
1677.8000, -65.321
1677.9000, -64.391
1678.0000, -64.796
1678.1000, -64.741
1678.2000, -64.842
1678.3000, -64.734
1678.4000, -63.741
1678.5000, -65.021
1678.6000, -64.120
1678.7000, -65.535
1678.8000, -63.956
1678.9000, -64.778
1679.0000, -62.897
1679.1000, -68.312
1679.2000, -62.398
1679.3000, -63.539
1679.4000, -63.977
1679.5000, -66.188
1679.6000, -63.049
1679.7000, -63.809
1679.8000, -65.423
1679.9000, -65.658
1680.0000, -63.321
1680.1000, -64.519
1680.2000, -67.143
1680.3000, -64.142
1680.4000, -63.905
1680.5000, -64.015
1680.6000, -63.777
1680.7000, -64.528
1680.8000, -63.022
1680.9000, -65.047
1681.0000, -63.290
1681.1000, -65.213
1681.2000, -63.156
1681.3000, -63.492
1681.4000, -67.744
1681.5000, -63.478
1681.6000, -63.669
1681.7000, -64.980
1681.8000, -63.516
1681.9000, -63.002
1682.0000, -67.680
1682.1000, -62.349
1682.2000, -69.582
1682.3000, -62.978
1682.4000, -63.340
1682.5000, -64.462
1682.6000, -64.122
1682.7000, -63.496
1682.8000, -63.120
1682.9000, -61.811
1683.0000, -66.864
1683.1000, -63.559
1683.2000, -62.860
1683.3000, -64.555
1683.4000, -62.780
1683.5000, -63.593
1683.6000, -64.340
1683.7000, -62.520
1683.8000, -65.722
1683.9000, -62.219
1684.0000, -63.359
1684.1000, -62.884
1684.2000, -63.322
1684.3000, -65.634
1684.4000, -62.868
1684.5000, -62.371
1684.6000, -64.029
1684.7000, -65.317
1684.8000, -62.402
1684.9000, -63.144
1685.0000, -63.802
1685.1000, -61.903
1685.2000, -63.672
1685.3000, -62.546
1685.4000, -64.661
1685.5000, -62.626
1685.6000, -62.579
1685.7000, -65.262
1685.8000, -63.724
1685.9000, -63.494
1686.0000, -62.500
1686.1000, -62.420
1686.2000, -63.433
1686.3000, -64.287
1686.4000, -64.780
1686.5000, -63.392
1686.6000, -64.205
1686.7000, -62.872
1686.8000, -62.177
1686.9000, -62.456
1687.0000, -63.226
1687.1000, -62.931
1687.2000, -63.640
1687.3000, -62.756
1687.4000, -63.033
1687.5000, -63.178
1687.6000, -61.810
1687.7000, -63.367
1687.8000, -62.175
1687.9000, -63.785
1688.0000, -62.616
1688.1000, -62.796
1688.2000, -62.132
1688.3000, -62.912
1688.4000, -62.280
1688.5000, -61.165
1688.6000, -65.164
1688.7000, -62.077
1688.8000, -62.556
1688.9000, -62.304
1689.0000, -63.250
1689.1000, -62.356
1689.2000, -62.706
1689.3000, -62.363
1689.4000, -61.944
1689.5000, -66.029
1689.6000, -60.853
1689.7000, -61.646
1689.8000, -62.185
1689.9000, -62.443
1690.0000, -62.092
1690.1000, -61.231
1690.2000, -63.758
1690.3000, -62.046
1690.4000, -62.520
1690.5000, -60.728
1690.6000, -61.237
1690.7000, -64.042
1690.8000, -61.495
1690.9000, -61.796
1691.0000, -61.928
1691.1000, -62.435
1691.2000, -61.095
1691.3000, -65.551
1691.4000, -59.096
1691.5000, -61.290
1691.6000, -62.163
1691.7000, -61.688
1691.8000, -61.856
1691.9000, -62.185
1692.0000, -61.133
1692.1000, -62.052
1692.2000, -65.555
1692.3000, -60.587
1692.4000, -61.610
1692.5000, -61.355
1692.6000, -60.772
1692.7000, -60.750
1692.8000, -61.247
1692.9000, -61.952
1693.0000, -61.627
1693.1000, -60.989
1693.2000, -61.295
1693.3000, -61.958
1693.4000, -60.423
1693.5000, -60.390
1693.6000, -61.199
1693.7000, -61.728
1693.8000, -62.063
1693.9000, -61.837
1694.0000, -60.480
1694.1000, -61.394
1694.2000, -59.897
1694.3000, -63.048
1694.4000, -60.639
1694.5000, -61.063
1694.6000, -60.199
1694.7000, -60.538
1694.8000, -61.001
1694.9000, -61.887
1695.0000, -59.576
1695.1000, -61.707
1695.2000, -60.214
1695.3000, -58.923
1695.4000, -62.647
1695.5000, -60.775
1695.6000, -61.692
1695.7000, -59.631
1695.8000, -61.593
1695.9000, -60.225
1696.0000, -60.194
1696.1000, -62.066
1696.2000, -59.946
1696.3000, -60.690
1696.4000, -59.999
1696.5000, -63.544
1696.6000, -59.925
1696.7000, -60.621
1696.8000, -59.402
1696.9000, -61.586
1697.0000, -60.761
1697.1000, -60.593
1697.2000, -60.396
1697.3000, -59.874
1697.4000, -59.316
1697.5000, -59.963
1697.6000, -60.912
1697.7000, -58.054
1697.8000, -62.086
1697.9000, -60.403
1698.0000, -59.571
1698.1000, -59.448
1698.2000, -59.506
1698.3000, -59.176
1698.4000, -59.413
1698.5000, -59.871
1698.6000, -60.356
1698.7000, -58.977
1698.8000, -59.826
1698.9000, -59.046
1699.0000, -59.997
1699.1000, -59.755
1699.2000, -61.288
1699.3000, -57.849
1699.4000, -59.435
1699.5000, -58.382
1699.6000, -60.323
1699.7000, -59.024
1699.8000, -59.480
1699.9000, -61.310
1700.0000, -59.452
