70BCSV 	
// AQ6370B OPTICAL SPECTRUM ANALYZER //                 
25
"CTRWL",1300.000000
"SPAN", 800.000000
"START WL", 900.000000
"STOP WL",1700.000000
"WLFREQ", 0
"REFL",-17.2
"LSCL",10.0
"RESLN",0.500
"AVG",   1
"SMPLAUTO",      1
"SMPL",       8001
"SMPLINTVL",0.1000
"HIGH1"
"MEAS"
"LSUNT",0
"NMSKH","OFF"
"RESCOR",0
"RESPARM", 9740
"FREQPARM", 9740






"[TRACE DATA]"
 900.0000, -53.245
 900.1000, -56.468
 900.2000, -54.713
 900.3000, -55.756
 900.4000, -53.226
 900.5000, -56.535
 900.6000, -54.387
 900.7000, -54.171
 900.8000, -54.016
 900.9000, -54.470
 901.0000, -51.732
 901.1000, -54.645
 901.2000, -53.413
 901.3000, -53.281
 901.4000, -53.156
 901.5000, -53.192
 901.6000, -53.452
 901.7000, -53.536
 901.8000, -53.685
 901.9000, -52.956
 902.0000, -54.401
 902.1000, -53.856
 902.2000, -53.499
 902.3000, -52.855
 902.4000, -52.776
 902.5000, -52.057
 902.6000, -52.406
 902.7000, -53.325
 902.8000, -52.992
 902.9000, -52.927
 903.0000, -52.392
 903.1000, -52.497
 903.2000, -52.205
 903.3000, -53.467
 903.4000, -52.394
 903.5000, -52.895
 903.6000, -53.093
 903.7000, -52.497
 903.8000, -52.301
 903.9000, -52.471
 904.0000, -53.672
 904.1000, -53.257
 904.2000, -51.656
 904.3000, -53.562
 904.4000, -52.062
 904.5000, -52.560
 904.6000, -52.467
 904.7000, -52.040
 904.8000, -52.354
 904.9000, -51.901
 905.0000, -53.118
 905.1000, -52.933
 905.2000, -52.083
 905.3000, -53.087
 905.4000, -53.235
 905.5000, -52.273
 905.6000, -52.724
 905.7000, -52.742
 905.8000, -51.927
 905.9000, -51.746
 906.0000, -51.794
 906.1000, -50.712
 906.2000, -52.261
 906.3000, -51.197
 906.4000, -52.050
 906.5000, -51.849
 906.6000, -51.864
 906.7000, -51.562
 906.8000, -51.984
 906.9000, -53.045
 907.0000, -51.735
 907.1000, -52.851
 907.2000, -51.648
 907.3000, -50.737
 907.4000, -52.098
 907.5000, -51.424
 907.6000, -51.079
 907.7000, -51.156
 907.8000, -51.722
 907.9000, -52.118
 908.0000, -50.806
 908.1000, -51.960
 908.2000, -50.792
 908.3000, -51.503
 908.4000, -51.850
 908.5000, -51.317
 908.6000, -50.643
 908.7000, -51.009
 908.8000, -51.755
 908.9000, -51.948
 909.0000, -51.273
 909.1000, -51.734
 909.2000, -51.130
 909.3000, -50.324
 909.4000, -51.955
 909.5000, -50.664
 909.6000, -51.357
 909.7000, -50.961
 909.8000, -49.970
 909.9000, -52.181
 910.0000, -51.366
 910.1000, -50.738
 910.2000, -51.465
 910.3000, -51.004
 910.4000, -51.093
 910.5000, -50.996
 910.6000, -51.137
 910.7000, -50.585
 910.8000, -50.923
 910.9000, -49.286
 911.0000, -50.205
 911.1000, -49.400
 911.2000, -50.594
 911.3000, -50.318
 911.4000, -50.284
 911.5000, -51.217
 911.6000, -50.036
 911.7000, -49.897
 911.8000, -51.164
 911.9000, -50.663
 912.0000, -49.628
 912.1000, -50.250
 912.2000, -51.187
 912.3000, -50.087
 912.4000, -50.470
 912.5000, -49.433
 912.6000, -49.660
 912.7000, -50.504
 912.8000, -50.462
 912.9000, -49.216
 913.0000, -49.913
 913.1000, -49.988
 913.2000, -49.864
 913.3000, -49.836
 913.4000, -50.226
 913.5000, -49.900
 913.6000, -49.347
 913.7000, -48.927
 913.8000, -49.093
 913.9000, -49.369
 914.0000, -50.378
 914.1000, -48.968
 914.2000, -49.359
 914.3000, -49.296
 914.4000, -49.271
 914.5000, -49.689
 914.6000, -49.390
 914.7000, -49.833
 914.8000, -48.723
 914.9000, -48.889
 915.0000, -48.783
 915.1000, -49.246
 915.2000, -49.526
 915.3000, -49.135
 915.4000, -48.227
 915.5000, -49.967
 915.6000, -48.988
 915.7000, -49.145
 915.8000, -48.985
 915.9000, -49.289
 916.0000, -48.552
 916.1000, -48.746
 916.2000, -49.217
 916.3000, -48.485
 916.4000, -48.318
 916.5000, -49.103
 916.6000, -48.320
 916.7000, -48.596
 916.8000, -49.929
 916.9000, -47.887
 917.0000, -49.170
 917.1000, -49.142
 917.2000, -49.448
 917.3000, -49.089
 917.4000, -49.107
 917.5000, -48.972
 917.6000, -48.125
 917.7000, -48.773
 917.8000, -48.245
 917.9000, -48.091
 918.0000, -48.120
 918.1000, -49.303
 918.2000, -48.292
 918.3000, -48.501
 918.4000, -48.672
 918.5000, -48.688
 918.6000, -48.732
 918.7000, -48.117
 918.8000, -48.192
 918.9000, -48.401
 919.0000, -47.582
 919.1000, -48.813
 919.2000, -47.275
 919.3000, -48.353
 919.4000, -48.317
 919.5000, -48.266
 919.6000, -48.550
 919.7000, -48.079
 919.8000, -47.724
 919.9000, -48.767
 920.0000, -47.769
 920.1000, -47.483
 920.2000, -47.865
 920.3000, -47.944
 920.4000, -47.500
 920.5000, -47.548
 920.6000, -47.999
 920.7000, -47.408
 920.8000, -48.379
 920.9000, -47.701
 921.0000, -48.066
 921.1000, -47.352
 921.2000, -47.690
 921.3000, -47.642
 921.4000, -48.071
 921.5000, -47.823
 921.6000, -48.207
 921.7000, -47.479
 921.8000, -47.582
 921.9000, -47.766
 922.0000, -47.833
 922.1000, -47.743
 922.2000, -48.209
 922.3000, -48.300
 922.4000, -48.268
 922.5000, -47.999
 922.6000, -47.573
 922.7000, -47.539
 922.8000, -47.710
 922.9000, -47.639
 923.0000, -47.517
 923.1000, -47.569
 923.2000, -47.379
 923.3000, -47.048
 923.4000, -47.137
 923.5000, -47.353
 923.6000, -47.462
 923.7000, -46.845
 923.8000, -47.537
 923.9000, -47.286
 924.0000, -47.298
 924.1000, -48.137
 924.2000, -47.541
 924.3000, -47.083
 924.4000, -47.334
 924.5000, -47.347
 924.6000, -47.679
 924.7000, -47.608
 924.8000, -47.194
 924.9000, -46.773
 925.0000, -46.923
 925.1000, -46.362
 925.2000, -46.985
 925.3000, -47.374
 925.4000, -47.422
 925.5000, -46.253
 925.6000, -46.944
 925.7000, -46.726
 925.8000, -46.846
 925.9000, -46.760
 926.0000, -46.965
 926.1000, -47.132
 926.2000, -46.731
 926.3000, -46.669
 926.4000, -47.483
 926.5000, -46.669
 926.6000, -47.161
 926.7000, -47.212
 926.8000, -47.106
 926.9000, -47.104
 927.0000, -46.875
 927.1000, -46.542
 927.2000, -46.919
 927.3000, -47.279
 927.4000, -46.203
 927.5000, -47.301
 927.6000, -47.132
 927.7000, -46.712
 927.8000, -46.614
 927.9000, -47.121
 928.0000, -46.911
 928.1000, -47.001
 928.2000, -46.730
 928.3000, -46.740
 928.4000, -47.142
 928.5000, -46.814
 928.6000, -46.951
 928.7000, -46.552
 928.8000, -46.829
 928.9000, -46.475
 929.0000, -46.708
 929.1000, -46.251
 929.2000, -46.340
 929.3000, -46.247
 929.4000, -46.425
 929.5000, -46.087
 929.6000, -46.087
 929.7000, -47.123
 929.8000, -46.153
 929.9000, -46.457
 930.0000, -46.191
 930.1000, -46.600
 930.2000, -46.354
 930.3000, -46.333
 930.4000, -46.727
 930.5000, -46.482
 930.6000, -46.258
 930.7000, -46.323
 930.8000, -46.134
 930.9000, -46.426
 931.0000, -46.159
 931.1000, -45.965
 931.2000, -46.778
 931.3000, -46.325
 931.4000, -46.449
 931.5000, -46.150
 931.6000, -46.190
 931.7000, -46.474
 931.8000, -46.285
 931.9000, -45.892
 932.0000, -46.453
 932.1000, -46.486
 932.2000, -46.317
 932.3000, -46.448
 932.4000, -46.007
 932.5000, -46.713
 932.6000, -45.818
 932.7000, -46.553
 932.8000, -46.419
 932.9000, -45.887
 933.0000, -46.335
 933.1000, -45.975
 933.2000, -46.226
 933.3000, -45.720
 933.4000, -45.830
 933.5000, -46.424
 933.6000, -46.134
 933.7000, -46.200
 933.8000, -45.426
 933.9000, -45.941
 934.0000, -46.449
 934.1000, -46.150
 934.2000, -45.871
 934.3000, -45.991
 934.4000, -46.058
 934.5000, -46.061
 934.6000, -45.931
 934.7000, -46.127
 934.8000, -46.004
 934.9000, -45.898
 935.0000, -46.019
 935.1000, -46.306
 935.2000, -46.334
 935.3000, -46.064
 935.4000, -46.012
 935.5000, -46.238
 935.6000, -45.939
 935.7000, -46.722
 935.8000, -45.720
 935.9000, -46.097
 936.0000, -46.239
 936.1000, -46.215
 936.2000, -46.274
 936.3000, -45.816
 936.4000, -45.576
 936.5000, -46.117
 936.6000, -45.826
 936.7000, -45.826
 936.8000, -46.112
 936.9000, -45.629
 937.0000, -45.693
 937.1000, -45.787
 937.2000, -46.167
 937.3000, -45.996
 937.4000, -46.356
 937.5000, -45.445
 937.6000, -45.868
 937.7000, -45.322
 937.8000, -45.605
 937.9000, -46.208
 938.0000, -45.673
 938.1000, -45.658
 938.2000, -45.640
 938.3000, -45.424
 938.4000, -45.690
 938.5000, -45.813
 938.6000, -46.121
 938.7000, -45.757
 938.8000, -45.945
 938.9000, -45.843
 939.0000, -45.925
 939.1000, -45.589
 939.2000, -45.985
 939.3000, -45.261
 939.4000, -45.492
 939.5000, -45.605
 939.6000, -45.935
 939.7000, -45.756
 939.8000, -45.498
 939.9000, -45.642
 940.0000, -45.922
 940.1000, -46.082
 940.2000, -46.046
 940.3000, -45.484
 940.4000, -45.643
 940.5000, -45.868
 940.6000, -46.010
 940.7000, -46.025
 940.8000, -45.308
 940.9000, -45.146
 941.0000, -45.685
 941.1000, -45.919
 941.2000, -46.030
 941.3000, -45.622
 941.4000, -45.749
 941.5000, -45.920
 941.6000, -46.059
 941.7000, -45.762
 941.8000, -46.064
 941.9000, -45.732
 942.0000, -45.940
 942.1000, -45.769
 942.2000, -45.743
 942.3000, -45.820
 942.4000, -45.915
 942.5000, -45.366
 942.6000, -45.962
 942.7000, -45.997
 942.8000, -46.218
 942.9000, -45.654
 943.0000, -45.892
 943.1000, -45.687
 943.2000, -46.008
 943.3000, -45.976
 943.4000, -45.558
 943.5000, -45.785
 943.6000, -46.585
 943.7000, -45.450
 943.8000, -45.844
 943.9000, -45.616
 944.0000, -45.620
 944.1000, -45.872
 944.2000, -46.131
 944.3000, -45.681
 944.4000, -46.011
 944.5000, -45.927
 944.6000, -45.609
 944.7000, -45.622
 944.8000, -45.814
 944.9000, -45.936
 945.0000, -46.012
 945.1000, -45.653
 945.2000, -45.796
 945.3000, -46.133
 945.4000, -45.633
 945.5000, -45.896
 945.6000, -45.810
 945.7000, -46.001
 945.8000, -45.795
 945.9000, -45.953
 946.0000, -45.774
 946.1000, -45.845
 946.2000, -45.687
 946.3000, -45.854
 946.4000, -45.587
 946.5000, -45.669
 946.6000, -46.092
 946.7000, -45.680
 946.8000, -46.551
 946.9000, -46.165
 947.0000, -46.350
 947.1000, -46.195
 947.2000, -46.125
 947.3000, -45.711
 947.4000, -46.112
 947.5000, -45.724
 947.6000, -45.907
 947.7000, -45.724
 947.8000, -45.925
 947.9000, -45.843
 948.0000, -45.958
 948.1000, -46.263
 948.2000, -46.353
 948.3000, -45.574
 948.4000, -45.803
 948.5000, -45.861
 948.6000, -45.920
 948.7000, -45.764
 948.8000, -46.115
 948.9000, -46.236
 949.0000, -46.216
 949.1000, -45.823
 949.2000, -46.159
 949.3000, -46.049
 949.4000, -45.920
 949.5000, -45.607
 949.6000, -45.974
 949.7000, -46.062
 949.8000, -45.586
 949.9000, -45.553
 950.0000, -46.076
 950.1000, -45.843
 950.2000, -45.837
 950.3000, -45.642
 950.4000, -46.106
 950.5000, -45.602
 950.6000, -45.788
 950.7000, -46.316
 950.8000, -46.097
 950.9000, -45.727
 951.0000, -46.072
 951.1000, -45.895
 951.2000, -45.703
 951.3000, -46.040
 951.4000, -46.150
 951.5000, -46.039
 951.6000, -45.957
 951.7000, -46.051
 951.8000, -45.927
 951.9000, -46.304
 952.0000, -45.708
 952.1000, -46.090
 952.2000, -45.955
 952.3000, -46.102
 952.4000, -45.614
 952.5000, -45.950
 952.6000, -46.349
 952.7000, -45.965
 952.8000, -45.919
 952.9000, -45.844
 953.0000, -46.221
 953.1000, -46.054
 953.2000, -45.951
 953.3000, -46.169
 953.4000, -45.873
 953.5000, -45.979
 953.6000, -45.998
 953.7000, -45.997
 953.8000, -45.702
 953.9000, -45.877
 954.0000, -46.358
 954.1000, -46.334
 954.2000, -46.193
 954.3000, -46.032
 954.4000, -45.931
 954.5000, -45.870
 954.6000, -46.561
 954.7000, -45.937
 954.8000, -45.828
 954.9000, -46.000
 955.0000, -46.080
 955.1000, -46.127
 955.2000, -46.328
 955.3000, -46.008
 955.4000, -46.143
 955.5000, -45.994
 955.6000, -46.094
 955.7000, -45.904
 955.8000, -46.099
 955.9000, -45.984
 956.0000, -45.976
 956.1000, -46.413
 956.2000, -46.384
 956.3000, -46.180
 956.4000, -46.299
 956.5000, -46.147
 956.6000, -46.348
 956.7000, -45.958
 956.8000, -45.782
 956.9000, -46.291
 957.0000, -46.414
 957.1000, -46.283
 957.2000, -45.876
 957.3000, -46.077
 957.4000, -45.804
 957.5000, -46.160
 957.6000, -46.294
 957.7000, -45.857
 957.8000, -46.138
 957.9000, -46.160
 958.0000, -46.274
 958.1000, -46.055
 958.2000, -46.482
 958.3000, -46.552
 958.4000, -46.455
 958.5000, -46.200
 958.6000, -46.293
 958.7000, -46.116
 958.8000, -46.130
 958.9000, -45.740
 959.0000, -46.035
 959.1000, -46.219
 959.2000, -46.147
 959.3000, -46.300
 959.4000, -46.287
 959.5000, -46.083
 959.6000, -46.407
 959.7000, -46.066
 959.8000, -46.980
 959.9000, -45.837
 960.0000, -46.185
 960.1000, -46.149
 960.2000, -46.108
 960.3000, -46.275
 960.4000, -46.017
 960.5000, -46.145
 960.6000, -46.304
 960.7000, -46.088
 960.8000, -45.803
 960.9000, -46.422
 961.0000, -46.147
 961.1000, -45.997
 961.2000, -46.162
 961.3000, -46.276
 961.4000, -45.904
 961.5000, -45.887
 961.6000, -45.970
 961.7000, -45.925
 961.8000, -46.096
 961.9000, -46.245
 962.0000, -46.297
 962.1000, -45.520
 962.2000, -46.228
 962.3000, -46.202
 962.4000, -46.073
 962.5000, -45.808
 962.6000, -46.046
 962.7000, -46.380
 962.8000, -46.610
 962.9000, -45.773
 963.0000, -45.779
 963.1000, -46.531
 963.2000, -45.961
 963.3000, -46.357
 963.4000, -46.296
 963.5000, -45.976
 963.6000, -45.941
 963.7000, -46.361
 963.8000, -45.740
 963.9000, -45.939
 964.0000, -46.527
 964.1000, -46.238
 964.2000, -46.065
 964.3000, -46.220
 964.4000, -46.398
 964.5000, -45.881
 964.6000, -45.911
 964.7000, -46.730
 964.8000, -45.944
 964.9000, -46.148
 965.0000, -46.171
 965.1000, -46.329
 965.2000, -46.552
 965.3000, -46.111
 965.4000, -46.419
 965.5000, -46.362
 965.6000, -46.503
 965.7000, -46.852
 965.8000, -46.352
 965.9000, -46.108
 966.0000, -46.206
 966.1000, -46.168
 966.2000, -46.203
 966.3000, -45.997
 966.4000, -46.243
 966.5000, -46.509
 966.6000, -46.646
 966.7000, -46.537
 966.8000, -46.546
 966.9000, -46.728
 967.0000, -46.146
 967.1000, -46.041
 967.2000, -46.343
 967.3000, -46.425
 967.4000, -46.442
 967.5000, -46.277
 967.6000, -46.541
 967.7000, -46.546
 967.8000, -46.418
 967.9000, -46.426
 968.0000, -46.440
 968.1000, -46.581
 968.2000, -46.588
 968.3000, -46.239
 968.4000, -46.286
 968.5000, -46.079
 968.6000, -46.413
 968.7000, -46.268
 968.8000, -46.649
 968.9000, -46.495
 969.0000, -46.387
 969.1000, -46.187
 969.2000, -46.642
 969.3000, -46.732
 969.4000, -46.608
 969.5000, -46.352
 969.6000, -46.593
 969.7000, -46.600
 969.8000, -46.301
 969.9000, -46.434
 970.0000, -46.549
 970.1000, -46.621
 970.2000, -46.788
 970.3000, -46.222
 970.4000, -46.376
 970.5000, -46.410
 970.6000, -46.534
 970.7000, -47.165
 970.8000, -46.739
 970.9000, -47.006
 971.0000, -46.714
 971.1000, -46.623
 971.2000, -46.904
 971.3000, -46.695
 971.4000, -46.505
 971.5000, -46.528
 971.6000, -46.651
 971.7000, -46.311
 971.8000, -46.518
 971.9000, -46.803
 972.0000, -46.658
 972.1000, -46.750
 972.2000, -46.881
 972.3000, -46.942
 972.4000, -46.807
 972.5000, -47.031
 972.6000, -47.294
 972.7000, -46.786
 972.8000, -46.753
 972.9000, -46.881
 973.0000, -46.945
 973.1000, -47.254
 973.2000, -46.753
 973.3000, -47.015
 973.4000, -47.361
 973.5000, -46.974
 973.6000, -47.055
 973.7000, -46.942
 973.8000, -46.928
 973.9000, -47.163
 974.0000, -46.936
 974.1000, -47.360
 974.2000, -47.368
 974.3000, -47.171
 974.4000, -47.056
 974.5000, -47.232
 974.6000, -47.307
 974.7000, -47.457
 974.8000, -47.078
 974.9000, -47.131
 975.0000, -47.486
 975.1000, -47.364
 975.2000, -47.380
 975.3000, -47.581
 975.4000, -47.492
 975.5000, -47.356
 975.6000, -47.598
 975.7000, -47.509
 975.8000, -47.665
 975.9000, -47.636
 976.0000, -48.068
 976.1000, -47.771
 976.2000, -48.063
 976.3000, -48.286
 976.4000, -48.068
 976.5000, -47.914
 976.6000, -48.321
 976.7000, -47.778
 976.8000, -47.940
 976.9000, -47.970
 977.0000, -48.269
 977.1000, -48.668
 977.2000, -48.193
 977.3000, -48.427
 977.4000, -48.504
 977.5000, -48.501
 977.6000, -48.585
 977.7000, -48.634
 977.8000, -48.299
 977.9000, -48.655
 978.0000, -48.684
 978.1000, -49.008
 978.2000, -48.840
 978.3000, -49.079
 978.4000, -48.629
 978.5000, -48.678
 978.6000, -48.813
 978.7000, -48.848
 978.8000, -49.003
 978.9000, -49.056
 979.0000, -48.883
 979.1000, -48.666
 979.2000, -48.848
 979.3000, -49.228
 979.4000, -49.053
 979.5000, -49.062
 979.6000, -49.021
 979.7000, -49.084
 979.8000, -49.398
 979.9000, -49.151
 980.0000, -49.348
 980.1000, -49.297
 980.2000, -49.202
 980.3000, -49.385
 980.4000, -49.165
 980.5000, -49.822
 980.6000, -49.389
 980.7000, -49.176
 980.8000, -49.441
 980.9000, -49.386
 981.0000, -49.395
 981.1000, -49.532
 981.2000, -49.560
 981.3000, -49.167
 981.4000, -49.800
 981.5000, -49.055
 981.6000, -49.452
 981.7000, -49.287
 981.8000, -49.122
 981.9000, -49.014
 982.0000, -49.349
 982.1000, -49.688
 982.2000, -49.310
 982.3000, -49.402
 982.4000, -49.426
 982.5000, -49.381
 982.6000, -49.464
 982.7000, -49.529
 982.8000, -49.500
 982.9000, -49.350
 983.0000, -49.348
 983.1000, -49.302
 983.2000, -49.520
 983.3000, -49.371
 983.4000, -49.408
 983.5000, -49.566
 983.6000, -49.203
 983.7000, -49.399
 983.8000, -49.125
 983.9000, -49.335
 984.0000, -49.441
 984.1000, -49.229
 984.2000, -49.050
 984.3000, -49.232
 984.4000, -49.105
 984.5000, -49.171
 984.6000, -48.875
 984.7000, -49.233
 984.8000, -48.994
 984.9000, -49.060
 985.0000, -49.530
 985.1000, -49.592
 985.2000, -49.672
 985.3000, -49.500
 985.4000, -49.406
 985.5000, -49.325
 985.6000, -49.363
 985.7000, -49.421
 985.8000, -49.218
 985.9000, -49.548
 986.0000, -49.764
 986.1000, -49.627
 986.2000, -49.959
 986.3000, -49.725
 986.4000, -49.882
 986.5000, -49.948
 986.6000, -50.083
 986.7000, -49.595
 986.8000, -49.962
 986.9000, -50.024
 987.0000, -50.041
 987.1000, -49.963
 987.2000, -49.949
 987.3000, -50.006
 987.4000, -50.065
 987.5000, -50.119
 987.6000, -50.393
 987.7000, -50.436
 987.8000, -50.026
 987.9000, -50.443
 988.0000, -50.378
 988.1000, -50.412
 988.2000, -50.103
 988.3000, -50.301
 988.4000, -50.165
 988.5000, -50.753
 988.6000, -50.421
 988.7000, -50.231
 988.8000, -50.348
 988.9000, -50.358
 989.0000, -50.322
 989.1000, -50.599
 989.2000, -50.867
 989.3000, -50.564
 989.4000, -50.560
 989.5000, -50.593
 989.6000, -50.568
 989.7000, -50.658
 989.8000, -51.051
 989.9000, -50.592
 990.0000, -50.657
 990.1000, -50.848
 990.2000, -50.478
 990.3000, -50.474
 990.4000, -50.823
 990.5000, -50.555
 990.6000, -50.637
 990.7000, -50.938
 990.8000, -50.784
 990.9000, -50.732
 991.0000, -51.117
 991.1000, -50.966
 991.2000, -50.946
 991.3000, -51.086
 991.4000, -50.673
 991.5000, -50.849
 991.6000, -50.794
 991.7000, -51.052
 991.8000, -50.866
 991.9000, -50.910
 992.0000, -50.687
 992.1000, -50.894
 992.2000, -50.615
 992.3000, -50.467
 992.4000, -50.785
 992.5000, -50.716
 992.6000, -50.808
 992.7000, -51.005
 992.8000, -51.218
 992.9000, -50.757
 993.0000, -51.104
 993.1000, -50.882
 993.2000, -50.989
 993.3000, -51.235
 993.4000, -50.679
 993.5000, -51.004
 993.6000, -50.790
 993.7000, -51.128
 993.8000, -50.715
 993.9000, -50.925
 994.0000, -50.891
 994.1000, -50.798
 994.2000, -50.528
 994.3000, -50.604
 994.4000, -50.957
 994.5000, -51.019
 994.6000, -50.806
 994.7000, -51.059
 994.8000, -50.577
 994.9000, -50.861
 995.0000, -50.892
 995.1000, -50.807
 995.2000, -50.781
 995.3000, -51.134
 995.4000, -50.854
 995.5000, -50.899
 995.6000, -51.077
 995.7000, -51.143
 995.8000, -51.139
 995.9000, -51.325
 996.0000, -51.422
 996.1000, -51.364
 996.2000, -51.446
 996.3000, -51.110
 996.4000, -51.299
 996.5000, -51.329
 996.6000, -51.256
 996.7000, -51.217
 996.8000, -51.346
 996.9000, -51.509
 997.0000, -51.518
 997.1000, -51.384
 997.2000, -51.706
 997.3000, -51.552
 997.4000, -51.495
 997.5000, -51.550
 997.6000, -51.517
 997.7000, -51.656
 997.8000, -51.633
 997.9000, -51.783
 998.0000, -52.126
 998.1000, -52.142
 998.2000, -51.959
 998.3000, -52.157
 998.4000, -52.214
 998.5000, -52.201
 998.6000, -52.097
 998.7000, -52.436
 998.8000, -52.344
 998.9000, -52.237
 999.0000, -52.370
 999.1000, -52.359
 999.2000, -52.495
 999.3000, -52.631
 999.4000, -52.642
 999.5000, -52.724
 999.6000, -52.635
 999.7000, -52.602
 999.8000, -52.582
 999.9000, -52.788
1000.0000, -52.704
1000.1000, -52.735
1000.2000, -52.871
1000.3000, -53.090
1000.4000, -52.666
1000.5000, -52.749
1000.6000, -52.864
1000.7000, -52.659
1000.8000, -53.031
1000.9000, -52.772
1001.0000, -52.896
1001.1000, -52.780
1001.2000, -52.678
1001.3000, -52.592
1001.4000, -52.902
1001.5000, -52.836
1001.6000, -52.852
1001.7000, -52.694
1001.8000, -52.605
1001.9000, -52.543
1002.0000, -52.468
1002.1000, -52.495
1002.2000, -52.575
1002.3000, -52.560
1002.4000, -52.382
1002.5000, -52.461
1002.6000, -52.372
1002.7000, -52.410
1002.8000, -52.697
1002.9000, -52.285
1003.0000, -52.387
1003.1000, -52.192
1003.2000, -52.097
1003.3000, -52.442
1003.4000, -52.180
1003.5000, -52.279
1003.6000, -52.351
1003.7000, -52.258
1003.8000, -52.186
1003.9000, -52.299
1004.0000, -52.233
1004.1000, -52.145
1004.2000, -52.467
1004.3000, -52.285
1004.4000, -52.250
1004.5000, -52.099
1004.6000, -52.260
1004.7000, -52.208
1004.8000, -52.279
1004.9000, -52.234
1005.0000, -52.395
1005.1000, -52.177
1005.2000, -52.281
1005.3000, -52.184
1005.4000, -52.322
1005.5000, -52.501
1005.6000, -52.588
1005.7000, -52.420
1005.8000, -52.417
1005.9000, -52.224
1006.0000, -52.350
1006.1000, -52.190
1006.2000, -52.387
1006.3000, -52.440
1006.4000, -52.496
1006.5000, -52.562
1006.6000, -52.706
1006.7000, -52.506
1006.8000, -52.744
1006.9000, -52.716
1007.0000, -52.707
1007.1000, -52.747
1007.2000, -52.624
1007.3000, -52.808
1007.4000, -52.574
1007.5000, -52.728
1007.6000, -52.849
1007.7000, -52.861
1007.8000, -52.943
1007.9000, -52.934
1008.0000, -53.087
1008.1000, -53.181
1008.2000, -52.993
1008.3000, -53.033
1008.4000, -53.004
1008.5000, -53.317
1008.6000, -53.267
1008.7000, -53.365
1008.8000, -53.173
1008.9000, -53.151
1009.0000, -53.157
1009.1000, -53.369
1009.2000, -53.536
1009.3000, -53.747
1009.4000, -53.691
1009.5000, -53.469
1009.6000, -53.915
1009.7000, -53.559
1009.8000, -53.666
1009.9000, -54.072
1010.0000, -54.002
1010.1000, -53.959
1010.2000, -53.701
1010.3000, -53.729
1010.4000, -53.930
1010.5000, -53.858
1010.6000, -53.815
1010.7000, -53.816
1010.8000, -53.812
1010.9000, -53.899
1011.0000, -53.917
1011.1000, -54.190
1011.2000, -54.183
1011.3000, -54.133
1011.4000, -53.904
1011.5000, -53.910
1011.6000, -54.089
1011.7000, -53.908
1011.8000, -53.967
1011.9000, -53.891
1012.0000, -53.883
1012.1000, -53.864
1012.2000, -53.761
1012.3000, -53.636
1012.4000, -54.073
1012.5000, -53.999
1012.6000, -53.803
1012.7000, -53.892
1012.8000, -53.855
1012.9000, -53.706
1013.0000, -53.727
1013.1000, -53.528
1013.2000, -53.654
1013.3000, -53.435
1013.4000, -53.652
1013.5000, -53.570
1013.6000, -53.681
1013.7000, -53.397
1013.8000, -53.318
1013.9000, -53.470
1014.0000, -53.510
1014.1000, -53.549
1014.2000, -53.456
1014.3000, -53.524
1014.4000, -53.392
1014.5000, -53.296
1014.6000, -53.667
1014.7000, -53.394
1014.8000, -53.629
1014.9000, -53.310
1015.0000, -53.349
1015.1000, -53.106
1015.2000, -53.073
1015.3000, -53.321
1015.4000, -53.421
1015.5000, -53.336
1015.6000, -53.564
1015.7000, -53.153
1015.8000, -53.451
1015.9000, -53.383
1016.0000, -53.453
1016.1000, -53.444
1016.2000, -53.132
1016.3000, -53.477
1016.4000, -53.537
1016.5000, -53.283
1016.6000, -53.309
1016.7000, -53.248
1016.8000, -53.381
1016.9000, -53.298
1017.0000, -53.266
1017.1000, -53.266
1017.2000, -53.009
1017.3000, -53.015
1017.4000, -53.494
1017.5000, -53.009
1017.6000, -53.167
1017.7000, -53.362
1017.8000, -53.223
1017.9000, -53.417
1018.0000, -53.431
1018.1000, -53.222
1018.2000, -53.098
1018.3000, -53.292
1018.4000, -53.203
1018.5000, -53.254
1018.6000, -53.184
1018.7000, -52.958
1018.8000, -53.243
1018.9000, -53.032
1019.0000, -53.299
1019.1000, -53.211
1019.2000, -53.105
1019.3000, -53.369
1019.4000, -53.228
1019.5000, -53.461
1019.6000, -53.369
1019.7000, -53.246
1019.8000, -53.513
1019.9000, -53.217
1020.0000, -53.274
1020.1000, -53.399
1020.2000, -53.518
1020.3000, -53.453
1020.4000, -53.229
1020.5000, -53.254
1020.6000, -53.602
1020.7000, -53.609
1020.8000, -53.213
1020.9000, -53.641
1021.0000, -53.619
1021.1000, -53.519
1021.2000, -53.650
1021.3000, -53.575
1021.4000, -53.687
1021.5000, -53.682
1021.6000, -53.516
1021.7000, -53.428
1021.8000, -53.557
1021.9000, -53.352
1022.0000, -53.518
1022.1000, -53.371
1022.2000, -53.756
1022.3000, -53.891
1022.4000, -53.720
1022.5000, -53.834
1022.6000, -53.513
1022.7000, -53.654
1022.8000, -53.845
1022.9000, -53.597
1023.0000, -53.808
1023.1000, -53.614
1023.2000, -53.841
1023.3000, -54.036
1023.4000, -53.836
1023.5000, -53.995
1023.6000, -53.657
1023.7000, -53.662
1023.8000, -53.675
1023.9000, -53.853
1024.0000, -53.590
1024.1000, -53.776
1024.2000, -53.732
1024.3000, -53.861
1024.4000, -53.898
1024.5000, -53.676
1024.6000, -53.489
1024.7000, -53.717
1024.8000, -53.817
1024.9000, -53.689
1025.0000, -53.710
1025.1000, -53.763
1025.2000, -53.680
1025.3000, -53.824
1025.4000, -53.998
1025.5000, -53.920
1025.6000, -53.842
1025.7000, -54.171
1025.8000, -53.985
1025.9000, -54.012
1026.0000, -53.877
1026.1000, -53.864
1026.2000, -53.836
1026.3000, -53.770
1026.4000, -53.778
1026.5000, -53.986
1026.6000, -53.830
1026.7000, -54.019
1026.8000, -54.142
1026.9000, -53.759
1027.0000, -53.866
1027.1000, -53.693
1027.2000, -53.993
1027.3000, -53.721
1027.4000, -53.852
1027.5000, -53.817
1027.6000, -53.817
1027.7000, -53.767
1027.8000, -54.092
1027.9000, -53.744
1028.0000, -53.935
1028.1000, -53.947
1028.2000, -53.908
1028.3000, -54.084
1028.4000, -53.866
1028.5000, -54.011
1028.6000, -53.772
1028.7000, -53.904
1028.8000, -53.906
1028.9000, -54.005
1029.0000, -53.860
1029.1000, -54.066
1029.2000, -53.750
1029.3000, -53.802
1029.4000, -54.003
1029.5000, -53.871
1029.6000, -53.778
1029.7000, -53.790
1029.8000, -53.884
1029.9000, -53.875
1030.0000, -53.759
1030.1000, -53.611
1030.2000, -54.008
1030.3000, -53.772
1030.4000, -54.059
1030.5000, -53.612
1030.6000, -53.831
1030.7000, -53.681
1030.8000, -53.662
1030.9000, -53.758
1031.0000, -53.679
1031.1000, -53.595
1031.2000, -53.498
1031.3000, -53.363
1031.4000, -53.609
1031.5000, -53.688
1031.6000, -53.927
1031.7000, -53.537
1031.8000, -53.645
1031.9000, -53.520
1032.0000, -53.642
1032.1000, -53.878
1032.2000, -53.694
1032.3000, -53.390
1032.4000, -53.525
1032.5000, -53.352
1032.6000, -53.342
1032.7000, -53.348
1032.8000, -53.499
1032.9000, -53.379
1033.0000, -53.126
1033.1000, -53.348
1033.2000, -53.351
1033.3000, -53.302
1033.4000, -53.189
1033.5000, -53.017
1033.6000, -53.213
1033.7000, -53.127
1033.8000, -53.398
1033.9000, -53.154
1034.0000, -53.445
1034.1000, -53.191
1034.2000, -53.201
1034.3000, -53.247
1034.4000, -53.213
1034.5000, -53.073
1034.6000, -53.076
1034.7000, -53.209
1034.8000, -53.001
1034.9000, -52.856
1035.0000, -53.096
1035.1000, -53.227
1035.2000, -52.879
1035.3000, -53.084
1035.4000, -52.938
1035.5000, -53.116
1035.6000, -53.024
1035.7000, -52.776
1035.8000, -52.766
1035.9000, -52.972
1036.0000, -52.904
1036.1000, -53.000
1036.2000, -53.038
1036.3000, -52.887
1036.4000, -53.081
1036.5000, -52.974
1036.6000, -52.995
1036.7000, -52.959
1036.8000, -52.979
1036.9000, -52.853
1037.0000, -52.994
1037.1000, -52.921
1037.2000, -52.919
1037.3000, -52.904
1037.4000, -52.580
1037.5000, -53.097
1037.6000, -52.842
1037.7000, -52.712
1037.8000, -52.991
1037.9000, -52.962
1038.0000, -53.016
1038.1000, -52.968
1038.2000, -52.667
1038.3000, -52.971
1038.4000, -52.930
1038.5000, -52.890
1038.6000, -52.913
1038.7000, -52.746
1038.8000, -52.976
1038.9000, -52.953
1039.0000, -53.013
1039.1000, -52.747
1039.2000, -52.924
1039.3000, -52.916
1039.4000, -52.749
1039.5000, -53.005
1039.6000, -52.983
1039.7000, -52.773
1039.8000, -53.016
1039.9000, -53.063
1040.0000, -53.149
1040.1000, -52.947
1040.2000, -53.123
1040.3000, -52.570
1040.4000, -52.925
1040.5000, -52.721
1040.6000, -52.807
1040.7000, -53.072
1040.8000, -53.070
1040.9000, -53.165
1041.0000, -52.933
1041.1000, -52.995
1041.2000, -53.106
1041.3000, -52.712
1041.4000, -52.917
1041.5000, -53.086
1041.6000, -53.025
1041.7000, -53.059
1041.8000, -53.022
1041.9000, -53.278
1042.0000, -53.227
1042.1000, -53.253
1042.2000, -53.233
1042.3000, -53.214
1042.4000, -53.305
1042.5000, -53.196
1042.6000, -53.148
1042.7000, -53.228
1042.8000, -53.263
1042.9000, -53.550
1043.0000, -53.310
1043.1000, -53.084
1043.2000, -53.241
1043.3000, -53.519
1043.4000, -53.629
1043.5000, -53.512
1043.6000, -53.574
1043.7000, -53.696
1043.8000, -53.609
1043.9000, -53.507
1044.0000, -53.621
1044.1000, -53.830
1044.2000, -53.594
1044.3000, -53.794
1044.4000, -53.852
1044.5000, -53.651
1044.6000, -54.369
1044.7000, -53.956
1044.8000, -53.979
1044.9000, -53.772
1045.0000, -53.910
1045.1000, -53.912
1045.2000, -54.211
1045.3000, -53.975
1045.4000, -53.713
1045.5000, -54.030
1045.6000, -53.872
1045.7000, -54.203
1045.8000, -54.139
1045.9000, -54.166
1046.0000, -53.975
1046.1000, -54.056
1046.2000, -54.154
1046.3000, -54.340
1046.4000, -54.235
1046.5000, -54.101
1046.6000, -54.217
1046.7000, -54.507
1046.8000, -54.256
1046.9000, -54.307
1047.0000, -54.237
1047.1000, -54.284
1047.2000, -54.202
1047.3000, -54.277
1047.4000, -54.696
1047.5000, -54.017
1047.6000, -54.094
1047.7000, -54.182
1047.8000, -54.190
1047.9000, -54.436
1048.0000, -54.580
1048.1000, -54.410
1048.2000, -54.586
1048.3000, -54.230
1048.4000, -54.469
1048.5000, -54.413
1048.6000, -54.753
1048.7000, -54.801
1048.8000, -54.233
1048.9000, -54.509
1049.0000, -54.282
1049.1000, -54.494
1049.2000, -54.598
1049.3000, -54.116
1049.4000, -54.517
1049.5000, -54.704
1049.6000, -54.386
1049.7000, -54.128
1049.8000, -54.467
1049.9000, -54.751
1050.0000, -54.195
1050.1000, -54.653
1050.2000, -54.224
1050.3000, -54.589
1050.4000, -54.630
1050.5000, -54.484
1050.6000, -54.717
1050.7000, -54.418
1050.8000, -54.443
1050.9000, -54.281
1051.0000, -54.635
1051.1000, -54.659
1051.2000, -54.424
1051.3000, -54.836
1051.4000, -54.541
1051.5000, -54.790
1051.6000, -54.787
1051.7000, -54.969
1051.8000, -53.924
1051.9000, -54.420
1052.0000, -54.362
1052.1000, -54.334
1052.2000, -54.564
1052.3000, -54.429
1052.4000, -54.624
1052.5000, -54.283
1052.6000, -54.329
1052.7000, -54.104
1052.8000, -53.954
1052.9000, -54.159
1053.0000, -53.896
1053.1000, -54.293
1053.2000, -54.354
1053.3000, -53.697
1053.4000, -54.169
1053.5000, -54.080
1053.6000, -53.921
1053.7000, -53.999
1053.8000, -53.663
1053.9000, -53.938
1054.0000, -53.842
1054.1000, -53.852
1054.2000, -53.748
1054.3000, -52.720
1054.4000, -52.057
1054.5000, -51.197
1054.6000, -50.869
1054.7000, -50.145
1054.8000, -50.018
1054.9000, -49.954
1055.0000, -50.289
1055.1000, -50.515
1055.2000, -51.174
1055.3000, -51.990
1055.4000, -51.942
1055.5000, -52.731
1055.6000, -53.291
1055.7000, -53.056
1055.8000, -53.678
1055.9000, -53.397
1056.0000, -53.068
1056.1000, -52.824
1056.2000, -53.123
1056.3000, -53.283
1056.4000, -52.796
1056.5000, -53.167
1056.6000, -53.219
1056.7000, -52.853
1056.8000, -52.921
1056.9000, -52.739
1057.0000, -52.743
1057.1000, -52.728
1057.2000, -52.625
1057.3000, -52.608
1057.4000, -52.458
1057.5000, -52.530
1057.6000, -52.634
1057.7000, -52.047
1057.8000, -52.127
1057.9000, -52.410
1058.0000, -52.314
1058.1000, -51.979
1058.2000, -51.948
1058.3000, -51.731
1058.4000, -51.926
1058.5000, -51.599
1058.6000, -51.256
1058.7000, -51.578
1058.8000, -51.153
1058.9000, -51.174
1059.0000, -51.109
1059.1000, -50.891
1059.2000, -50.628
1059.3000, -50.797
1059.4000, -50.655
1059.5000, -50.343
1059.6000, -50.158
1059.7000, -50.032
1059.8000, -49.878
1059.9000, -49.683
1060.0000, -49.559
1060.1000, -49.366
1060.2000, -49.086
1060.3000, -48.822
1060.4000, -48.419
1060.5000, -48.188
1060.6000, -48.003
1060.7000, -47.804
1060.8000, -47.426
1060.9000, -47.136
1061.0000, -46.721
1061.1000, -46.452
1061.2000, -45.988
1061.3000, -45.695
1061.4000, -45.325
1061.5000, -44.885
1061.6000, -44.443
1061.7000, -44.011
1061.8000, -43.645
1061.9000, -43.377
1062.0000, -43.037
1062.1000, -42.747
1062.2000, -42.423
1062.3000, -42.114
1062.4000, -41.740
1062.5000, -41.418
1062.6000, -40.979
1062.7000, -40.531
1062.8000, -40.145
1062.9000, -39.625
1063.0000, -39.064
1063.1000, -38.528
1063.2000, -37.859
1063.3000, -37.075
1063.4000, -36.254
1063.5000, -35.145
1063.6000, -33.939
1063.7000, -32.935
1063.8000, -31.611
1063.9000, -30.051
1064.0000, -26.690
1064.1000, -20.298
1064.2000, -16.208
1064.3000, -13.781
1064.4000, -12.093
1064.5000, -11.384
1064.6000, -11.333
1064.7000, -11.342
1064.8000, -11.621
1064.9000, -12.579
1065.0000, -14.185
1065.1000, -17.574
1065.2000, -25.026
1065.3000, -29.378
1065.4000, -31.048
1065.5000, -32.432
1065.6000, -33.544
1065.7000, -34.465
1065.8000, -35.401
1065.9000, -36.169
1066.0000, -36.855
1066.1000, -37.552
1066.2000, -38.208
1066.3000, -38.833
1066.4000, -39.329
1066.5000, -39.919
1066.6000, -40.326
1066.7000, -40.821
1066.8000, -41.300
1066.9000, -41.747
1067.0000, -42.020
1067.1000, -42.342
1067.2000, -42.720
1067.3000, -42.932
1067.4000, -43.105
1067.5000, -43.337
1067.6000, -43.535
1067.7000, -43.574
1067.8000, -43.737
1067.9000, -43.794
1068.0000, -43.779
1068.1000, -43.871
1068.2000, -43.804
1068.3000, -43.634
1068.4000, -43.754
1068.5000, -43.521
1068.6000, -43.326
1068.7000, -43.215
1068.8000, -43.093
1068.9000, -42.791
1069.0000, -42.585
1069.1000, -42.307
1069.2000, -42.152
1069.3000, -41.934
1069.4000, -41.685
1069.5000, -41.421
1069.6000, -41.144
1069.7000, -40.824
1069.8000, -40.503
1069.9000, -40.347
1070.0000, -39.903
1070.1000, -39.699
1070.2000, -39.294
1070.3000, -38.947
1070.4000, -38.544
1070.5000, -38.058
1070.6000, -37.643
1070.7000, -37.325
1070.8000, -36.982
1070.9000, -36.526
1071.0000, -36.173
1071.1000, -35.555
1071.2000, -35.350
1071.3000, -35.091
1071.4000, -34.620
1071.5000, -34.205
1071.6000, -33.833
1071.7000, -33.399
1071.8000, -32.874
1071.9000, -32.413
1072.0000, -32.166
1072.1000, -31.614
1072.2000, -31.168
1072.3000, -30.780
1072.4000, -30.188
1072.5000, -29.727
1072.6000, -29.102
1072.7000, -28.543
1072.8000, -27.875
1072.9000, -27.114
1073.0000, -26.372
1073.1000, -25.455
1073.2000, -24.883
1073.3000, -24.086
1073.4000, -23.287
1073.5000, -22.564
1073.6000, -21.832
1073.7000, -21.318
1073.8000, -20.807
1073.9000, -20.319
1074.0000, -20.004
1074.1000, -19.734
1074.2000, -19.242
1074.3000, -19.277
1074.4000, -19.399
1074.5000, -19.476
1074.6000, -19.661
1074.7000, -19.903
1074.8000, -20.185
1074.9000, -20.487
1075.0000, -20.719
1075.1000, -20.780
1075.2000, -20.537
1075.3000, -20.255
1075.4000, -19.985
1075.5000, -19.614
1075.6000, -19.154
1075.7000, -18.543
1075.8000, -18.069
1075.9000, -17.525
1076.0000, -16.974
1076.1000, -16.357
1076.2000, -15.929
1076.3000, -15.437
1076.4000, -14.945
1076.5000, -14.630
1076.6000, -14.411
1076.7000, -14.206
1076.8000, -14.057
1076.9000, -14.002
1077.0000, -14.025
1077.1000, -14.177
1077.2000, -14.408
1077.3000, -14.679
1077.4000, -14.999
1077.5000, -15.355
1077.6000, -15.831
1077.7000, -16.269
1077.8000, -16.835
1077.9000, -17.355
1078.0000, -18.021
1078.1000, -18.633
1078.2000, -19.408
1078.3000, -20.174
1078.4000, -21.087
1078.5000, -21.742
1078.6000, -22.677
1078.7000, -23.537
1078.8000, -24.413
1078.9000, -25.177
1079.0000, -25.908
1079.1000, -26.587
1079.2000, -27.378
1079.3000, -27.998
1079.4000, -28.445
1079.5000, -29.011
1079.6000, -29.477
1079.7000, -30.022
1079.8000, -30.444
1079.9000, -31.153
1080.0000, -31.382
1080.1000, -31.771
1080.2000, -32.233
1080.3000, -32.536
1080.4000, -32.821
1080.5000, -33.330
1080.6000, -33.442
1080.7000, -33.725
1080.8000, -34.114
1080.9000, -34.446
1081.0000, -34.588
1081.1000, -34.907
1081.2000, -35.166
1081.3000, -35.218
1081.4000, -35.522
1081.5000, -35.834
1081.6000, -36.001
1081.7000, -36.254
1081.8000, -36.645
1081.9000, -36.784
1082.0000, -36.942
1082.1000, -37.139
1082.2000, -37.318
1082.3000, -37.541
1082.4000, -37.614
1082.5000, -37.805
1082.6000, -37.928
1082.7000, -38.043
1082.8000, -38.287
1082.9000, -38.449
1083.0000, -38.223
1083.1000, -38.266
1083.2000, -38.543
1083.3000, -38.451
1083.4000, -37.945
1083.5000, -37.473
1083.6000, -36.953
1083.7000, -36.142
1083.8000, -35.551
1083.9000, -34.632
1084.0000, -33.813
1084.1000, -33.063
1084.2000, -32.081
1084.3000, -31.984
1084.4000, -31.574
1084.5000, -31.630
1084.6000, -31.786
1084.7000, -32.179
1084.8000, -32.918
1084.9000, -33.875
1085.0000, -34.966
1085.1000, -36.262
1085.2000, -37.350
1085.3000, -38.373
1085.4000, -38.859
1085.5000, -39.413
1085.6000, -40.005
1085.7000, -40.337
1085.8000, -40.621
1085.9000, -40.877
1086.0000, -40.978
1086.1000, -40.901
1086.2000, -40.937
1086.3000, -41.084
1086.4000, -40.973
1086.5000, -40.802
1086.6000, -40.753
1086.7000, -40.313
1086.8000, -40.409
1086.9000, -40.329
1087.0000, -40.363
1087.1000, -40.611
1087.2000, -40.580
1087.3000, -40.847
1087.4000, -41.119
1087.5000, -41.340
1087.6000, -41.508
1087.7000, -41.958
1087.8000, -42.097
1087.9000, -42.432
1088.0000, -42.791
1088.1000, -42.866
1088.2000, -43.328
1088.3000, -43.559
1088.4000, -43.738
1088.5000, -43.652
1088.6000, -43.724
1088.7000, -43.876
1088.8000, -43.778
1088.9000, -44.034
1089.0000, -43.970
1089.1000, -44.093
1089.2000, -44.167
1089.3000, -44.123
1089.4000, -44.181
1089.5000, -44.295
1089.6000, -44.346
1089.7000, -44.268
1089.8000, -44.245
1089.9000, -44.240
1090.0000, -44.244
1090.1000, -44.323
1090.2000, -44.156
1090.3000, -44.022
1090.4000, -44.087
1090.5000, -44.033
1090.6000, -44.023
1090.7000, -43.997
1090.8000, -43.799
1090.9000, -44.050
1091.0000, -44.055
1091.1000, -44.247
1091.2000, -44.362
1091.3000, -44.514
1091.4000, -44.633
1091.5000, -44.857
1091.6000, -44.980
1091.7000, -45.134
1091.8000, -45.341
1091.9000, -45.367
1092.0000, -45.460
1092.1000, -45.553
1092.2000, -45.660
1092.3000, -45.762
1092.4000, -45.885
1092.5000, -45.862
1092.6000, -45.936
1092.7000, -45.965
1092.8000, -46.004
1092.9000, -45.950
1093.0000, -45.996
1093.1000, -45.945
1093.2000, -45.998
1093.3000, -46.013
1093.4000, -45.982
1093.5000, -46.060
1093.6000, -46.014
1093.7000, -46.020
1093.8000, -45.974
1093.9000, -45.999
1094.0000, -46.081
1094.1000, -46.088
1094.2000, -45.987
1094.3000, -46.047
1094.4000, -46.030
1094.5000, -46.051
1094.6000, -46.014
1094.7000, -45.958
1094.8000, -45.836
1094.9000, -45.977
1095.0000, -45.868
1095.1000, -45.852
1095.2000, -45.860
1095.3000, -46.038
1095.4000, -46.078
1095.5000, -46.070
1095.6000, -46.030
1095.7000, -46.009
1095.8000, -45.961
1095.9000, -45.927
1096.0000, -45.867
1096.1000, -45.796
1096.2000, -45.746
1096.3000, -45.741
1096.4000, -45.724
1096.5000, -45.652
1096.6000, -45.658
1096.7000, -45.631
1096.8000, -45.479
1096.9000, -45.582
1097.0000, -45.483
1097.1000, -45.447
1097.2000, -45.354
1097.3000, -45.301
1097.4000, -45.231
1097.5000, -45.123
1097.6000, -45.131
1097.7000, -45.092
1097.8000, -45.061
1097.9000, -44.964
1098.0000, -44.953
1098.1000, -44.905
1098.2000, -44.778
1098.3000, -44.718
1098.4000, -44.700
1098.5000, -44.589
1098.6000, -44.468
1098.7000, -44.536
1098.8000, -44.422
1098.9000, -44.348
1099.0000, -44.264
1099.1000, -44.166
1099.2000, -44.042
1099.3000, -43.991
1099.4000, -43.882
1099.5000, -43.832
1099.6000, -43.723
1099.7000, -43.694
1099.8000, -43.654
1099.9000, -43.461
1100.0000, -43.507
1100.1000, -43.432
1100.2000, -43.292
1100.3000, -43.149
1100.4000, -43.160
1100.5000, -43.055
1100.6000, -42.954
1100.7000, -42.853
1100.8000, -42.725
1100.9000, -42.568
1101.0000, -42.466
1101.1000, -42.408
1101.2000, -42.393
1101.3000, -42.272
1101.4000, -42.167
1101.5000, -42.035
1101.6000, -42.055
1101.7000, -41.895
1101.8000, -41.776
1101.9000, -41.680
1102.0000, -41.608
1102.1000, -41.471
1102.2000, -41.320
1102.3000, -41.251
1102.4000, -41.100
1102.5000, -41.004
1102.6000, -40.902
1102.7000, -40.747
1102.8000, -40.585
1102.9000, -40.411
1103.0000, -40.344
1103.1000, -40.237
1103.2000, -40.158
1103.3000, -40.009
1103.4000, -39.830
1103.5000, -39.744
1103.6000, -39.589
1103.7000, -39.403
1103.8000, -39.232
1103.9000, -39.143
1104.0000, -38.995
1104.1000, -38.836
1104.2000, -38.755
1104.3000, -38.570
1104.4000, -38.282
1104.5000, -38.261
1104.6000, -38.111
1104.7000, -37.946
1104.8000, -37.843
1104.9000, -37.608
1105.0000, -37.449
1105.1000, -37.320
1105.2000, -37.111
1105.3000, -36.966
1105.4000, -36.803
1105.5000, -36.640
1105.6000, -36.397
1105.7000, -36.349
1105.8000, -36.082
1105.9000, -35.893
1106.0000, -35.770
1106.1000, -35.561
1106.2000, -35.456
1106.3000, -35.306
1106.4000, -34.995
1106.5000, -34.893
1106.6000, -34.693
1106.7000, -34.593
1106.8000, -34.379
1106.9000, -34.117
1107.0000, -33.976
1107.1000, -33.762
1107.2000, -33.607
1107.3000, -33.364
1107.4000, -33.220
1107.5000, -33.000
1107.6000, -32.846
1107.7000, -32.686
1107.8000, -32.415
1107.9000, -32.266
1108.0000, -32.166
1108.1000, -31.959
1108.2000, -31.767
1108.3000, -31.680
1108.4000, -31.477
1108.5000, -31.254
1108.6000, -31.006
1108.7000, -30.908
1108.8000, -30.693
1108.9000, -30.553
1109.0000, -30.457
1109.1000, -30.188
1109.2000, -30.016
1109.3000, -29.898
1109.4000, -29.679
1109.5000, -29.524
1109.6000, -29.368
1109.7000, -29.201
1109.8000, -29.023
1109.9000, -28.742
1110.0000, -28.643
1110.1000, -28.538
1110.2000, -28.336
1110.3000, -28.104
1110.4000, -27.980
1110.5000, -27.862
1110.6000, -27.572
1110.7000, -27.427
1110.8000, -27.306
1110.9000, -27.180
1111.0000, -26.976
1111.1000, -26.803
1111.2000, -26.728
1111.3000, -26.489
1111.4000, -26.346
1111.5000, -26.132
1111.6000, -25.986
1111.7000, -25.786
1111.8000, -25.568
1111.9000, -25.498
1112.0000, -25.273
1112.1000, -25.075
1112.2000, -24.941
1112.3000, -24.796
1112.4000, -24.605
1112.5000, -24.500
1112.6000, -24.270
1112.7000, -24.136
1112.8000, -23.981
1112.9000, -23.790
1113.0000, -23.639
1113.1000, -23.488
1113.2000, -23.335
1113.3000, -23.157
1113.4000, -22.890
1113.5000, -22.920
1113.6000, -22.752
1113.7000, -22.536
1113.8000, -22.415
1113.9000, -22.255
1114.0000, -22.077
1114.1000, -21.935
1114.2000, -21.796
1114.3000, -21.642
1114.4000, -21.456
1114.5000, -21.336
1114.6000, -21.190
1114.7000, -21.012
1114.8000, -20.877
1114.9000, -20.714
1115.0000, -20.568
1115.1000, -20.412
1115.2000, -20.285
1115.3000, -20.094
1115.4000, -19.987
1115.5000, -19.860
1115.6000, -19.747
1115.7000, -19.621
1115.8000, -19.508
1115.9000, -19.421
1116.0000, -19.310
1116.1000, -19.170
1116.2000, -19.038
1116.3000, -18.942
1116.4000, -18.899
1116.5000, -18.809
1116.6000, -18.721
1116.7000, -18.663
1116.8000, -18.561
1116.9000, -18.541
1117.0000, -18.457
1117.1000, -18.448
1117.2000, -18.361
1117.3000, -18.360
1117.4000, -18.354
1117.5000, -18.298
1117.6000, -18.309
1117.7000, -18.250
1117.8000, -18.299
1117.9000, -18.305
1118.0000, -18.293
1118.1000, -18.306
1118.2000, -18.316
1118.3000, -18.301
1118.4000, -18.371
1118.5000, -18.380
1118.6000, -18.488
1118.7000, -18.383
1118.8000, -18.500
1118.9000, -18.469
1119.0000, -18.470
1119.1000, -18.521
1119.2000, -18.519
1119.3000, -18.518
1119.4000, -18.509
1119.5000, -18.583
1119.6000, -18.554
1119.7000, -18.562
1119.8000, -18.545
1119.9000, -18.539
1120.0000, -18.517
1120.1000, -18.510
1120.2000, -18.511
1120.3000, -18.435
1120.4000, -18.464
1120.5000, -18.323
1120.6000, -18.251
1120.7000, -18.219
1120.8000, -18.109
1120.9000, -17.981
1121.0000, -17.885
1121.1000, -17.736
1121.2000, -17.668
1121.3000, -17.535
1121.4000, -17.417
1121.5000, -17.294
1121.6000, -17.159
1121.7000, -17.006
1121.8000, -16.952
1121.9000, -16.727
1122.0000, -16.632
1122.1000, -16.556
1122.2000, -16.478
1122.3000, -16.419
1122.4000, -16.330
1122.5000, -16.223
1122.6000, -16.168
1122.7000, -16.225
1122.8000, -16.106
1122.9000, -16.094
1123.0000, -16.160
1123.1000, -16.243
1123.2000, -16.258
1123.3000, -16.358
1123.4000, -16.461
1123.5000, -16.627
1123.6000, -16.755
1123.7000, -16.880
1123.8000, -17.012
1123.9000, -17.183
1124.0000, -17.370
1124.1000, -17.571
1124.2000, -17.732
1124.3000, -17.851
1124.4000, -18.131
1124.5000, -18.333
1124.6000, -18.442
1124.7000, -18.707
1124.8000, -18.897
1124.9000, -19.101
1125.0000, -19.286
1125.1000, -19.478
1125.2000, -19.672
1125.3000, -19.851
1125.4000, -20.061
1125.5000, -20.213
1125.6000, -20.400
1125.7000, -20.543
1125.8000, -20.629
1125.9000, -20.823
1126.0000, -20.955
1126.1000, -21.072
1126.2000, -21.145
1126.3000, -21.214
1126.4000, -21.351
1126.5000, -21.437
1126.6000, -21.540
1126.7000, -21.635
1126.8000, -21.710
1126.9000, -21.696
1127.0000, -21.788
1127.1000, -21.824
1127.2000, -21.956
1127.3000, -21.948
1127.4000, -21.983
1127.5000, -22.007
1127.6000, -22.119
1127.7000, -22.083
1127.8000, -22.126
1127.9000, -22.138
1128.0000, -22.170
1128.1000, -22.186
1128.2000, -22.193
1128.3000, -22.246
1128.4000, -22.240
1128.5000, -22.224
1128.6000, -22.337
1128.7000, -22.332
1128.8000, -22.278
1128.9000, -22.356
1129.0000, -22.439
1129.1000, -22.351
1129.2000, -22.381
1129.3000, -22.466
1129.4000, -22.501
1129.5000, -22.454
1129.6000, -22.491
1129.7000, -22.534
1129.8000, -22.565
1129.9000, -22.615
1130.0000, -22.705
1130.1000, -22.672
1130.2000, -22.702
1130.3000, -22.771
1130.4000, -22.741
1130.5000, -22.809
1130.6000, -22.838
1130.7000, -22.839
1130.8000, -22.894
1130.9000, -23.007
1131.0000, -23.004
1131.1000, -23.074
1131.2000, -23.029
1131.3000, -23.193
1131.4000, -23.243
1131.5000, -23.272
1131.6000, -23.395
1131.7000, -23.397
1131.8000, -23.422
1131.9000, -23.423
1132.0000, -23.547
1132.1000, -23.607
1132.2000, -23.641
1132.3000, -23.720
1132.4000, -23.811
1132.5000, -23.868
1132.6000, -23.939
1132.7000, -24.035
1132.8000, -24.097
1132.9000, -24.181
1133.0000, -24.293
1133.1000, -24.279
1133.2000, -24.428
1133.3000, -24.455
1133.4000, -24.457
1133.5000, -24.660
1133.6000, -24.742
1133.7000, -24.912
1133.8000, -24.979
1133.9000, -25.057
1134.0000, -25.126
1134.1000, -25.069
1134.2000, -25.208
1134.3000, -25.437
1134.4000, -25.481
1134.5000, -25.520
1134.6000, -25.763
1134.7000, -25.708
1134.8000, -25.749
1134.9000, -25.935
1135.0000, -26.007
1135.1000, -26.124
1135.2000, -26.222
1135.3000, -26.255
1135.4000, -26.471
1135.5000, -26.425
1135.6000, -26.568
1135.7000, -26.641
1135.8000, -26.804
1135.9000, -26.831
1136.0000, -26.976
1136.1000, -27.000
1136.2000, -27.165
1136.3000, -27.273
1136.4000, -27.411
1136.5000, -27.411
1136.6000, -27.546
1136.7000, -27.516
1136.8000, -27.732
1136.9000, -27.726
1137.0000, -27.992
1137.1000, -28.046
1137.2000, -28.206
1137.3000, -28.271
1137.4000, -28.285
1137.5000, -28.432
1137.6000, -28.689
1137.7000, -28.851
1137.8000, -28.947
1137.9000, -28.998
1138.0000, -29.144
1138.1000, -29.203
1138.2000, -29.338
1138.3000, -29.485
1138.4000, -29.645
1138.5000, -29.984
1138.6000, -29.948
1138.7000, -30.035
1138.8000, -30.252
1138.9000, -30.317
1139.0000, -30.472
1139.1000, -30.737
1139.2000, -30.835
1139.3000, -30.945
1139.4000, -31.104
1139.5000, -31.150
1139.6000, -31.309
1139.7000, -31.435
1139.8000, -31.555
1139.9000, -31.759
1140.0000, -31.781
1140.1000, -31.939
1140.2000, -32.152
1140.3000, -32.416
1140.4000, -32.402
1140.5000, -32.612
1140.6000, -32.691
1140.7000, -32.807
1140.8000, -32.849
1140.9000, -33.125
1141.0000, -33.249
1141.1000, -33.335
1141.2000, -33.575
1141.3000, -33.705
1141.4000, -33.970
1141.5000, -33.999
1141.6000, -34.157
1141.7000, -34.240
1141.8000, -34.312
1141.9000, -34.622
1142.0000, -34.681
1142.1000, -34.824
1142.2000, -34.913
1142.3000, -35.195
1142.4000, -35.304
1142.5000, -35.286
1142.6000, -35.674
1142.7000, -35.527
1142.8000, -35.862
1142.9000, -36.051
1143.0000, -36.201
1143.1000, -36.488
1143.2000, -36.497
1143.3000, -36.620
1143.4000, -36.856
1143.5000, -36.988
1143.6000, -36.944
1143.7000, -37.350
1143.8000, -37.420
1143.9000, -37.499
1144.0000, -37.702
1144.1000, -37.860
1144.2000, -38.018
1144.3000, -38.078
1144.4000, -38.325
1144.5000, -38.420
1144.6000, -38.525
1144.7000, -38.667
1144.8000, -38.887
1144.9000, -39.063
1145.0000, -39.260
1145.1000, -39.787
1145.2000, -39.888
1145.3000, -39.849
1145.4000, -39.846
1145.5000, -40.096
1145.6000, -40.049
1145.7000, -40.428
1145.8000, -40.607
1145.9000, -40.621
1146.0000, -40.934
1146.1000, -41.146
1146.2000, -40.969
1146.3000, -41.095
1146.4000, -41.288
1146.5000, -41.327
1146.6000, -41.571
1146.7000, -41.651
1146.8000, -41.868
1146.9000, -42.138
1147.0000, -42.116
1147.1000, -42.323
1147.2000, -42.438
1147.3000, -42.338
1147.4000, -42.458
1147.5000, -42.614
1147.6000, -42.690
1147.7000, -42.768
1147.8000, -42.704
1147.9000, -42.882
1148.0000, -42.745
1148.1000, -42.697
1148.2000, -42.798
1148.3000, -42.751
1148.4000, -43.007
1148.5000, -43.304
1148.6000, -43.262
1148.7000, -43.261
1148.8000, -43.230
1148.9000, -43.269
1149.0000, -43.338
1149.1000, -43.131
1149.2000, -43.299
1149.3000, -43.126
1149.4000, -43.296
1149.5000, -43.292
1149.6000, -43.397
1149.7000, -43.436
1149.8000, -43.300
1149.9000, -43.412
1150.0000, -43.475
1150.1000, -43.317
1150.2000, -43.473
1150.3000, -43.363
1150.4000, -43.228
1150.5000, -43.247
1150.6000, -43.194
1150.7000, -43.226
1150.8000, -43.158
1150.9000, -43.162
1151.0000, -43.163
1151.1000, -43.172
1151.2000, -43.155
1151.3000, -43.138
1151.4000, -43.012
1151.5000, -43.037
1151.6000, -43.014
1151.7000, -42.759
1151.8000, -42.768
1151.9000, -42.719
1152.0000, -42.684
1152.1000, -42.671
1152.2000, -42.482
1152.3000, -42.450
1152.4000, -42.464
1152.5000, -42.428
1152.6000, -42.352
1152.7000, -42.161
1152.8000, -42.214
1152.9000, -42.030
1153.0000, -41.978
1153.1000, -41.975
1153.2000, -41.755
1153.3000, -41.759
1153.4000, -41.673
1153.5000, -41.488
1153.6000, -41.557
1153.7000, -41.348
1153.8000, -41.285
1153.9000, -41.254
1154.0000, -41.086
1154.1000, -41.023
1154.2000, -40.996
1154.3000, -40.840
1154.4000, -40.835
1154.5000, -40.677
1154.6000, -40.584
1154.7000, -40.462
1154.8000, -40.346
1154.9000, -40.262
1155.0000, -40.148
1155.1000, -39.930
1155.2000, -39.970
1155.3000, -39.884
1155.4000, -39.847
1155.5000, -39.622
1155.6000, -39.579
1155.7000, -39.535
1155.8000, -39.424
1155.9000, -39.191
1156.0000, -39.209
1156.1000, -38.995
1156.2000, -38.943
1156.3000, -38.843
1156.4000, -38.748
1156.5000, -38.636
1156.6000, -38.573
1156.7000, -38.412
1156.8000, -38.364
1156.9000, -38.094
1157.0000, -38.122
1157.1000, -38.074
1157.2000, -37.956
1157.3000, -37.855
1157.4000, -37.625
1157.5000, -37.672
1157.6000, -37.449
1157.7000, -37.385
1157.8000, -37.256
1157.9000, -37.156
1158.0000, -37.100
1158.1000, -37.030
1158.2000, -36.912
1158.3000, -36.721
1158.4000, -36.701
1158.5000, -36.505
1158.6000, -36.617
1158.7000, -36.509
1158.8000, -36.335
1158.9000, -36.165
1159.0000, -36.117
1159.1000, -36.066
1159.2000, -35.854
1159.3000, -35.759
1159.4000, -35.632
1159.5000, -35.625
1159.6000, -35.434
1159.7000, -35.356
1159.8000, -35.247
1159.9000, -35.151
1160.0000, -35.050
1160.1000, -34.936
1160.2000, -34.777
1160.3000, -34.635
1160.4000, -34.579
1160.5000, -34.402
1160.6000, -34.349
1160.7000, -34.107
1160.8000, -34.028
1160.9000, -33.887
1161.0000, -33.719
1161.1000, -33.629
1161.2000, -33.461
1161.3000, -33.330
1161.4000, -33.174
1161.5000, -33.075
1161.6000, -32.985
1161.7000, -32.884
1161.8000, -32.707
1161.9000, -32.612
1162.0000, -32.432
1162.1000, -32.282
1162.2000, -32.187
1162.3000, -32.023
1162.4000, -31.911
1162.5000, -31.780
1162.6000, -31.623
1162.7000, -31.529
1162.8000, -31.441
1162.9000, -31.283
1163.0000, -31.198
1163.1000, -31.042
1163.2000, -30.945
1163.3000, -30.724
1163.4000, -30.630
1163.5000, -30.519
1163.6000, -30.425
1163.7000, -30.276
1163.8000, -30.184
1163.9000, -30.028
1164.0000, -29.916
1164.1000, -29.844
1164.2000, -29.761
1164.3000, -29.559
1164.4000, -29.487
1164.5000, -29.342
1164.6000, -29.166
1164.7000, -29.145
1164.8000, -29.041
1164.9000, -28.933
1165.0000, -28.834
1165.1000, -28.639
1165.2000, -28.589
1165.3000, -28.528
1165.4000, -28.286
1165.5000, -28.239
1165.6000, -28.133
1165.7000, -27.981
1165.8000, -27.931
1165.9000, -27.890
1166.0000, -27.716
1166.1000, -27.602
1166.2000, -27.490
1166.3000, -27.394
1166.4000, -27.334
1166.5000, -27.152
1166.6000, -27.038
1166.7000, -26.944
1166.8000, -26.861
1166.9000, -26.816
1167.0000, -26.599
1167.1000, -26.587
1167.2000, -26.427
1167.3000, -26.313
1167.4000, -26.217
1167.5000, -26.080
1167.6000, -25.936
1167.7000, -25.896
1167.8000, -25.739
1167.9000, -25.663
1168.0000, -25.611
1168.1000, -25.450
1168.2000, -25.406
1168.3000, -25.300
1168.4000, -25.154
1168.5000, -25.054
1168.6000, -24.980
1168.7000, -24.964
1168.8000, -24.829
1168.9000, -24.642
1169.0000, -24.528
1169.1000, -24.525
1169.2000, -24.450
1169.3000, -24.315
1169.4000, -24.278
1169.5000, -24.173
1169.6000, -24.074
1169.7000, -23.976
1169.8000, -23.930
1169.9000, -23.774
1170.0000, -23.799
1170.1000, -23.650
1170.2000, -23.549
1170.3000, -23.478
1170.4000, -23.418
1170.5000, -23.301
1170.6000, -23.241
1170.7000, -23.165
1170.8000, -23.072
1170.9000, -22.951
1171.0000, -22.875
1171.1000, -22.818
1171.2000, -22.808
1171.3000, -22.726
1171.4000, -22.591
1171.5000, -22.539
1171.6000, -22.500
1171.7000, -22.366
1171.8000, -22.245
1171.9000, -22.184
1172.0000, -22.050
1172.1000, -22.022
1172.2000, -21.857
1172.3000, -21.801
1172.4000, -21.752
1172.5000, -21.625
1172.6000, -21.509
1172.7000, -21.393
1172.8000, -21.317
1172.9000, -21.289
1173.0000, -21.156
1173.1000, -21.044
1173.2000, -20.923
1173.3000, -20.914
1173.4000, -20.807
1173.5000, -20.686
1173.6000, -20.589
1173.7000, -20.560
1173.8000, -20.426
1173.9000, -20.343
1174.0000, -20.228
1174.1000, -20.148
1174.2000, -20.029
1174.3000, -20.036
1174.4000, -19.906
1174.5000, -19.795
1174.6000, -19.686
1174.7000, -19.617
1174.8000, -19.510
1174.9000, -19.440
1175.0000, -19.358
1175.1000, -19.236
1175.2000, -19.126
1175.3000, -19.080
1175.4000, -18.974
1175.5000, -18.949
1175.6000, -18.837
1175.7000, -18.758
1175.8000, -18.694
1175.9000, -18.614
1176.0000, -18.500
1176.1000, -18.444
1176.2000, -18.400
1176.3000, -18.309
1176.4000, -18.291
1176.5000, -18.194
1176.6000, -18.180
1176.7000, -18.044
1176.8000, -18.009
1176.9000, -17.993
1177.0000, -17.879
1177.1000, -17.839
1177.2000, -17.793
1177.3000, -17.721
1177.4000, -17.689
1177.5000, -17.561
1177.6000, -17.586
1177.7000, -17.544
1177.8000, -17.472
1177.9000, -17.400
1178.0000, -17.388
1178.1000, -17.407
1178.2000, -17.304
1178.3000, -17.237
1178.4000, -17.231
1178.5000, -17.192
1178.6000, -17.228
1178.7000, -17.145
1178.8000, -17.177
1178.9000, -17.090
1179.0000, -17.095
1179.1000, -17.083
1179.2000, -17.062
1179.3000, -17.077
1179.4000, -17.041
1179.5000, -17.039
1179.6000, -17.058
1179.7000, -16.962
1179.8000, -17.071
1179.9000, -17.029
1180.0000, -17.048
1180.1000, -17.022
1180.2000, -17.073
1180.3000, -17.072
1180.4000, -17.068
1180.5000, -17.110
1180.6000, -17.132
1180.7000, -17.169
1180.8000, -17.216
1180.9000, -17.287
1181.0000, -17.262
1181.1000, -17.282
1181.2000, -17.361
1181.3000, -17.351
1181.4000, -17.406
1181.5000, -17.463
1181.6000, -17.535
1181.7000, -17.553
1181.8000, -17.586
1181.9000, -17.649
1182.0000, -17.744
1182.1000, -17.831
1182.2000, -17.919
1182.3000, -17.948
1182.4000, -17.973
1182.5000, -18.072
1182.6000, -18.113
1182.7000, -18.201
1182.8000, -18.288
1182.9000, -18.352
1183.0000, -18.361
1183.1000, -18.485
1183.2000, -18.526
1183.3000, -18.603
1183.4000, -18.790
1183.5000, -18.840
1183.6000, -18.887
1183.7000, -18.993
1183.8000, -19.108
1183.9000, -19.179
1184.0000, -19.248
1184.1000, -19.263
1184.2000, -19.409
1184.3000, -19.504
1184.4000, -19.612
1184.5000, -19.620
1184.6000, -19.758
1184.7000, -19.867
1184.8000, -19.957
1184.9000, -20.010
1185.0000, -20.130
1185.1000, -20.182
1185.2000, -20.313
1185.3000, -20.344
1185.4000, -20.434
1185.5000, -20.587
1185.6000, -20.687
1185.7000, -20.756
1185.8000, -20.891
1185.9000, -20.904
1186.0000, -21.033
1186.1000, -21.132
1186.2000, -21.238
1186.3000, -21.295
1186.4000, -21.356
1186.5000, -21.455
1186.6000, -21.600
1186.7000, -21.645
1186.8000, -21.746
1186.9000, -21.825
1187.0000, -21.838
1187.1000, -21.955
1187.2000, -22.011
1187.3000, -22.129
1187.4000, -22.219
1187.5000, -22.281
1187.6000, -22.482
1187.7000, -22.419
1187.8000, -22.541
1187.9000, -22.567
1188.0000, -22.753
1188.1000, -22.718
1188.2000, -22.811
1188.3000, -22.881
1188.4000, -22.955
1188.5000, -23.064
1188.6000, -23.078
1188.7000, -23.202
1188.8000, -23.301
1188.9000, -23.367
1189.0000, -23.375
1189.1000, -23.483
1189.2000, -23.508
1189.3000, -23.666
1189.4000, -23.666
1189.5000, -23.801
1189.6000, -23.841
1189.7000, -23.941
1189.8000, -23.933
1189.9000, -24.069
1190.0000, -24.150
1190.1000, -24.198
1190.2000, -24.244
1190.3000, -24.276
1190.4000, -24.343
1190.5000, -24.433
1190.6000, -24.498
1190.7000, -24.422
1190.8000, -24.481
1190.9000, -24.669
1191.0000, -24.718
1191.1000, -24.743
1191.2000, -24.799
1191.3000, -24.902
1191.4000, -24.898
1191.5000, -25.004
1191.6000, -25.078
1191.7000, -25.078
1191.8000, -25.133
1191.9000, -25.175
1192.0000, -25.192
1192.1000, -25.272
1192.2000, -25.402
1192.3000, -25.416
1192.4000, -25.515
1192.5000, -25.407
1192.6000, -25.538
1192.7000, -25.642
1192.8000, -25.660
1192.9000, -25.697
1193.0000, -25.786
1193.1000, -25.882
1193.2000, -25.885
1193.3000, -25.913
1193.4000, -26.026
1193.5000, -26.005
1193.6000, -26.071
1193.7000, -26.155
1193.8000, -26.261
1193.9000, -26.231
1194.0000, -26.366
1194.1000, -26.472
1194.2000, -26.479
1194.3000, -26.520
1194.4000, -26.664
1194.5000, -26.614
1194.6000, -26.772
1194.7000, -26.808
1194.8000, -26.836
1194.9000, -26.955
1195.0000, -26.947
1195.1000, -26.986
1195.2000, -27.046
1195.3000, -27.255
1195.4000, -27.254
1195.5000, -27.349
1195.6000, -27.294
1195.7000, -27.407
1195.8000, -27.332
1195.9000, -27.595
1196.0000, -27.583
1196.1000, -27.676
1196.2000, -27.826
1196.3000, -27.794
1196.4000, -27.885
1196.5000, -27.874
1196.6000, -27.974
1196.7000, -27.968
1196.8000, -28.140
1196.9000, -28.226
1197.0000, -28.255
1197.1000, -28.262
1197.2000, -28.340
1197.3000, -28.504
1197.4000, -28.550
1197.5000, -28.637
1197.6000, -28.679
1197.7000, -28.725
1197.8000, -28.806
1197.9000, -28.922
1198.0000, -29.062
1198.1000, -29.144
1198.2000, -29.022
1198.3000, -29.166
1198.4000, -29.339
1198.5000, -29.475
1198.6000, -29.390
1198.7000, -29.703
1198.8000, -29.634
1198.9000, -29.796
1199.0000, -29.765
1199.1000, -29.784
1199.2000, -30.048
1199.3000, -30.005
1199.4000, -30.081
1199.5000, -30.100
1199.6000, -30.170
1199.7000, -30.232
1199.8000, -30.259
1199.9000, -30.366
1200.0000, -30.353
1200.1000, -30.620
1200.2000, -30.588
1200.3000, -30.965
1200.4000, -30.812
1200.5000, -30.691
1200.6000, -30.892
1200.7000, -31.059
1200.8000, -31.112
1200.9000, -31.136
1201.0000, -31.463
1201.1000, -31.235
1201.2000, -31.358
1201.3000, -31.428
1201.4000, -31.592
1201.5000, -31.785
1201.6000, -31.731
1201.7000, -31.809
1201.8000, -31.866
1201.9000, -32.015
1202.0000, -32.140
1202.1000, -32.070
1202.2000, -32.253
1202.3000, -32.163
1202.4000, -32.243
1202.5000, -32.385
1202.6000, -32.562
1202.7000, -32.503
1202.8000, -32.647
1202.9000, -32.660
1203.0000, -32.630
1203.1000, -32.853
1203.2000, -32.866
1203.3000, -33.189
1203.4000, -33.002
1203.5000, -33.169
1203.6000, -33.557
1203.7000, -33.255
1203.8000, -33.360
1203.9000, -33.298
1204.0000, -33.550
1204.1000, -33.389
1204.2000, -33.557
1204.3000, -33.794
1204.4000, -33.802
1204.5000, -33.812
1204.6000, -33.802
1204.7000, -34.157
1204.8000, -34.026
1204.9000, -34.407
1205.0000, -34.176
1205.1000, -34.031
1205.2000, -34.448
1205.3000, -34.356
1205.4000, -34.402
1205.5000, -34.697
1205.6000, -34.598
1205.7000, -34.778
1205.8000, -34.863
1205.9000, -34.798
1206.0000, -34.981
1206.1000, -35.177
1206.2000, -35.079
1206.3000, -35.301
1206.4000, -35.270
1206.5000, -35.467
1206.6000, -35.396
1206.7000, -35.491
1206.8000, -35.383
1206.9000, -35.588
1207.0000, -35.620
1207.1000, -35.390
1207.2000, -35.607
1207.3000, -35.922
1207.4000, -35.792
1207.5000, -35.858
1207.6000, -36.040
1207.7000, -36.043
1207.8000, -36.466
1207.9000, -36.392
1208.0000, -36.351
1208.1000, -36.596
1208.2000, -36.585
1208.3000, -36.698
1208.4000, -36.639
1208.5000, -36.870
1208.6000, -36.720
1208.7000, -36.531
1208.8000, -37.201
1208.9000, -36.801
1209.0000, -37.145
1209.1000, -36.983
1209.2000, -36.989
1209.3000, -36.814
1209.4000, -36.912
1209.5000, -37.104
1209.6000, -37.304
1209.7000, -37.233
1209.8000, -37.311
1209.9000, -37.393
1210.0000, -37.286
1210.1000, -37.547
1210.2000, -37.590
1210.3000, -37.586
1210.4000, -37.686
1210.5000, -37.628
1210.6000, -37.671
1210.7000, -37.796
1210.8000, -37.947
1210.9000, -37.847
1211.0000, -38.037
1211.1000, -38.019
1211.2000, -38.006
1211.3000, -37.973
1211.4000, -37.993
1211.5000, -37.945
1211.6000, -38.164
1211.7000, -38.064
1211.8000, -38.021
1211.9000, -38.030
1212.0000, -38.142
1212.1000, -38.102
1212.2000, -38.399
1212.3000, -38.307
1212.4000, -38.107
1212.5000, -38.068
1212.6000, -38.165
1212.7000, -38.478
1212.8000, -38.320
1212.9000, -38.200
1213.0000, -38.358
1213.1000, -38.297
1213.2000, -38.226
1213.3000, -38.252
1213.4000, -38.266
1213.5000, -38.466
1213.6000, -38.355
1213.7000, -38.571
1213.8000, -38.351
1213.9000, -38.209
1214.0000, -38.303
1214.1000, -38.162
1214.2000, -38.224
1214.3000, -38.315
1214.4000, -38.044
1214.5000, -38.209
1214.6000, -38.268
1214.7000, -38.185
1214.8000, -38.122
1214.9000, -38.054
1215.0000, -38.049
1215.1000, -38.127
1215.2000, -38.123
1215.3000, -38.037
1215.4000, -38.050
1215.5000, -37.822
1215.6000, -38.071
1215.7000, -37.785
1215.8000, -37.859
1215.9000, -37.797
1216.0000, -37.923
1216.1000, -37.758
1216.2000, -37.729
1216.3000, -37.704
1216.4000, -37.745
1216.5000, -37.648
1216.6000, -37.553
1216.7000, -37.568
1216.8000, -37.489
1216.9000, -37.345
1217.0000, -37.308
1217.1000, -37.389
1217.2000, -37.253
1217.3000, -37.168
1217.4000, -37.083
1217.5000, -37.172
1217.6000, -37.009
1217.7000, -36.926
1217.8000, -36.936
1217.9000, -36.796
1218.0000, -36.787
1218.1000, -36.703
1218.2000, -36.685
1218.3000, -36.667
1218.4000, -36.638
1218.5000, -36.481
1218.6000, -36.440
1218.7000, -36.319
1218.8000, -36.345
1218.9000, -36.370
1219.0000, -36.211
1219.1000, -36.087
1219.2000, -36.113
1219.3000, -35.912
1219.4000, -35.917
1219.5000, -35.852
1219.6000, -35.899
1219.7000, -35.766
1219.8000, -35.640
1219.9000, -35.559
1220.0000, -35.578
1220.1000, -35.383
1220.2000, -35.323
1220.3000, -35.210
1220.4000, -35.218
1220.5000, -35.014
1220.6000, -35.025
1220.7000, -34.868
1220.8000, -34.818
1220.9000, -34.717
1221.0000, -34.776
1221.1000, -34.698
1221.2000, -34.582
1221.3000, -34.411
1221.4000, -34.357
1221.5000, -34.356
1221.6000, -34.255
1221.7000, -34.115
1221.8000, -34.121
1221.9000, -33.975
1222.0000, -33.959
1222.1000, -33.824
1222.2000, -33.727
1222.3000, -33.680
1222.4000, -33.656
1222.5000, -33.377
1222.6000, -33.400
1222.7000, -33.288
1222.8000, -33.203
1222.9000, -33.081
1223.0000, -32.975
1223.1000, -32.913
1223.2000, -32.816
1223.3000, -32.701
1223.4000, -32.626
1223.5000, -32.582
1223.6000, -32.489
1223.7000, -32.374
1223.8000, -32.278
1223.9000, -32.082
1224.0000, -32.128
1224.1000, -32.043
1224.2000, -31.941
1224.3000, -31.788
1224.4000, -31.678
1224.5000, -31.609
1224.6000, -31.526
1224.7000, -31.472
1224.8000, -31.324
1224.9000, -31.237
1225.0000, -31.103
1225.1000, -31.112
1225.2000, -30.943
1225.3000, -30.975
1225.4000, -30.708
1225.5000, -30.695
1225.6000, -30.526
1225.7000, -30.489
1225.8000, -30.342
1225.9000, -30.263
1226.0000, -30.205
1226.1000, -30.041
1226.2000, -29.961
1226.3000, -29.843
1226.4000, -29.763
1226.5000, -29.643
1226.6000, -29.501
1226.7000, -29.439
1226.8000, -29.280
1226.9000, -29.202
1227.0000, -29.190
1227.1000, -29.054
1227.2000, -29.035
1227.3000, -28.835
1227.4000, -28.720
1227.5000, -28.616
1227.6000, -28.535
1227.7000, -28.456
1227.8000, -28.328
1227.9000, -28.243
1228.0000, -28.083
1228.1000, -28.056
1228.2000, -27.841
1228.3000, -27.775
1228.4000, -27.775
1228.5000, -27.617
1228.6000, -27.540
1228.7000, -27.439
1228.8000, -27.424
1228.9000, -27.311
1229.0000, -27.070
1229.1000, -27.040
1229.2000, -26.982
1229.3000, -26.759
1229.4000, -26.730
1229.5000, -26.732
1229.6000, -26.534
1229.7000, -26.505
1229.8000, -26.361
1229.9000, -26.199
1230.0000, -26.182
1230.1000, -26.078
1230.2000, -25.936
1230.3000, -25.858
1230.4000, -25.745
1230.5000, -25.715
1230.6000, -25.499
1230.7000, -25.454
1230.8000, -25.360
1230.9000, -25.263
1231.0000, -25.146
1231.1000, -25.109
1231.2000, -24.958
1231.3000, -24.869
1231.4000, -24.837
1231.5000, -24.617
1231.6000, -24.544
1231.7000, -24.539
1231.8000, -24.367
1231.9000, -24.306
1232.0000, -24.293
1232.1000, -24.156
1232.2000, -24.041
1232.3000, -23.941
1232.4000, -23.908
1232.5000, -23.772
1232.6000, -23.760
1232.7000, -23.626
1232.8000, -23.611
1232.9000, -23.434
1233.0000, -23.419
1233.1000, -23.247
1233.2000, -23.101
1233.3000, -23.116
1233.4000, -23.120
1233.5000, -22.979
1233.6000, -22.930
1233.7000, -22.851
1233.8000, -22.721
1233.9000, -22.734
1234.0000, -22.601
1234.1000, -22.568
1234.2000, -22.480
1234.3000, -22.509
1234.4000, -22.328
1234.5000, -22.228
1234.6000, -22.193
1234.7000, -22.112
1234.8000, -22.041
1234.9000, -21.918
1235.0000, -21.941
1235.1000, -21.842
1235.2000, -21.770
1235.3000, -21.720
1235.4000, -21.673
1235.5000, -21.543
1235.6000, -21.466
1235.7000, -21.444
1235.8000, -21.387
1235.9000, -21.286
1236.0000, -21.294
1236.1000, -21.190
1236.2000, -21.150
1236.3000, -21.205
1236.4000, -21.095
1236.5000, -20.980
1236.6000, -20.951
1236.7000, -20.894
1236.8000, -20.848
1236.9000, -20.852
1237.0000, -20.824
1237.1000, -20.727
1237.2000, -20.729
1237.3000, -20.623
1237.4000, -20.679
1237.5000, -20.586
1237.6000, -20.535
1237.7000, -20.481
1237.8000, -20.477
1237.9000, -20.325
1238.0000, -20.320
1238.1000, -20.393
1238.2000, -20.244
1238.3000, -20.198
1238.4000, -20.206
1238.5000, -20.248
1238.6000, -20.167
1238.7000, -20.130
1238.8000, -20.049
1238.9000, -20.162
1239.0000, -20.149
1239.1000, -20.095
1239.2000, -20.096
1239.3000, -20.032
1239.4000, -20.068
1239.5000, -20.029
1239.6000, -19.975
1239.7000, -19.917
1239.8000, -19.935
1239.9000, -19.890
1240.0000, -19.900
1240.1000, -20.021
1240.2000, -19.957
1240.3000, -19.910
1240.4000, -19.968
1240.5000, -19.877
1240.6000, -19.833
1240.7000, -19.892
1240.8000, -19.931
1240.9000, -19.844
1241.0000, -19.927
1241.1000, -19.847
1241.2000, -19.968
1241.3000, -19.920
1241.4000, -19.963
1241.5000, -19.944
1241.6000, -19.871
1241.7000, -20.011
1241.8000, -19.993
1241.9000, -19.888
1242.0000, -20.016
1242.1000, -20.066
1242.2000, -20.039
1242.3000, -20.069
1242.4000, -20.101
1242.5000, -20.124
1242.6000, -20.125
1242.7000, -20.110
1242.8000, -20.169
1242.9000, -20.116
1243.0000, -20.087
1243.1000, -20.272
1243.2000, -20.371
1243.3000, -20.293
1243.4000, -20.305
1243.5000, -20.256
1243.6000, -20.293
1243.7000, -20.452
1243.8000, -20.422
1243.9000, -20.481
1244.0000, -20.580
1244.1000, -20.539
1244.2000, -20.569
1244.3000, -20.726
1244.4000, -20.723
1244.5000, -20.740
1244.6000, -20.813
1244.7000, -20.776
1244.8000, -20.853
1244.9000, -21.036
1245.0000, -20.976
1245.1000, -21.092
1245.2000, -21.062
1245.3000, -21.050
1245.4000, -21.142
1245.5000, -21.172
1245.6000, -21.293
1245.7000, -21.254
1245.8000, -21.322
1245.9000, -21.435
1246.0000, -21.529
1246.1000, -21.623
1246.2000, -21.511
1246.3000, -21.652
1246.4000, -21.818
1246.5000, -21.813
1246.6000, -21.842
1246.7000, -21.909
1246.8000, -21.986
1246.9000, -21.962
1247.0000, -22.017
1247.1000, -22.151
1247.2000, -22.207
1247.3000, -22.305
1247.4000, -22.380
1247.5000, -22.461
1247.6000, -22.436
1247.7000, -22.607
1247.8000, -22.751
1247.9000, -22.669
1248.0000, -22.776
1248.1000, -22.858
1248.2000, -22.880
1248.3000, -22.904
1248.4000, -23.210
1248.5000, -23.122
1248.6000, -23.225
1248.7000, -23.262
1248.8000, -23.346
1248.9000, -23.463
1249.0000, -23.523
1249.1000, -23.563
1249.2000, -23.716
1249.3000, -23.750
1249.4000, -23.742
1249.5000, -23.865
1249.6000, -23.952
1249.7000, -24.004
1249.8000, -24.119
1249.9000, -24.157
1250.0000, -24.218
1250.1000, -24.401
1250.2000, -24.412
1250.3000, -24.526
1250.4000, -24.639
1250.5000, -24.730
1250.6000, -24.782
1250.7000, -24.921
1250.8000, -24.928
1250.9000, -25.078
1251.0000, -25.230
1251.1000, -25.226
1251.2000, -25.166
1251.3000, -25.421
1251.4000, -25.568
1251.5000, -25.664
1251.6000, -25.759
1251.7000, -25.707
1251.8000, -25.826
1251.9000, -25.944
1252.0000, -25.908
1252.1000, -26.093
1252.2000, -26.152
1252.3000, -26.235
1252.4000, -26.391
1252.5000, -26.380
1252.6000, -26.554
1252.7000, -26.711
1252.8000, -26.696
1252.9000, -26.841
1253.0000, -26.824
1253.1000, -26.897
1253.2000, -26.939
1253.3000, -27.092
1253.4000, -27.122
1253.5000, -27.298
1253.6000, -27.387
1253.7000, -27.381
1253.8000, -27.423
1253.9000, -27.545
1254.0000, -27.584
1254.1000, -27.771
1254.2000, -27.745
1254.3000, -27.751
1254.4000, -27.890
1254.5000, -27.970
1254.6000, -28.091
1254.7000, -28.076
1254.8000, -28.194
1254.9000, -28.195
1255.0000, -28.488
1255.1000, -28.427
1255.2000, -28.433
1255.3000, -28.484
1255.4000, -28.657
1255.5000, -28.655
1255.6000, -28.712
1255.7000, -28.906
1255.8000, -28.815
1255.9000, -28.989
1256.0000, -29.150
1256.1000, -29.040
1256.2000, -29.094
1256.3000, -29.155
1256.4000, -29.175
1256.5000, -29.293
1256.6000, -29.381
1256.7000, -29.527
1256.8000, -29.448
1256.9000, -29.528
1257.0000, -29.460
1257.1000, -29.611
1257.2000, -29.676
1257.3000, -29.710
1257.4000, -29.779
1257.5000, -29.837
1257.6000, -29.911
1257.7000, -29.953
1257.8000, -30.164
1257.9000, -30.084
1258.0000, -30.125
1258.1000, -30.037
1258.2000, -30.154
1258.3000, -30.267
1258.4000, -30.131
1258.5000, -30.367
1258.6000, -30.429
1258.7000, -30.480
1258.8000, -30.457
1258.9000, -30.572
1259.0000, -30.712
1259.1000, -30.523
1259.2000, -30.788
1259.3000, -30.863
1259.4000, -30.928
1259.5000, -30.855
1259.6000, -31.003
1259.7000, -30.969
1259.8000, -31.008
1259.9000, -31.061
1260.0000, -31.149
1260.1000, -31.228
1260.2000, -31.307
1260.3000, -31.412
1260.4000, -31.314
1260.5000, -31.372
1260.6000, -31.514
1260.7000, -31.524
1260.8000, -31.584
1260.9000, -31.625
1261.0000, -31.596
1261.1000, -31.674
1261.2000, -31.708
1261.3000, -31.767
1261.4000, -31.831
1261.5000, -31.985
1261.6000, -31.866
1261.7000, -32.133
1261.8000, -32.000
1261.9000, -32.076
1262.0000, -32.090
1262.1000, -32.214
1262.2000, -32.226
1262.3000, -32.285
1262.4000, -32.521
1262.5000, -32.386
1262.6000, -32.499
1262.7000, -32.528
1262.8000, -32.688
1262.9000, -32.620
1263.0000, -32.632
1263.1000, -32.793
1263.2000, -32.678
1263.3000, -32.770
1263.4000, -32.903
1263.5000, -32.840
1263.6000, -33.011
1263.7000, -33.110
1263.8000, -33.151
1263.9000, -33.170
1264.0000, -33.238
1264.1000, -33.297
1264.2000, -33.241
1264.3000, -33.210
1264.4000, -33.468
1264.5000, -33.403
1264.6000, -33.385
1264.7000, -33.610
1264.8000, -33.740
1264.9000, -33.612
1265.0000, -33.681
1265.1000, -33.886
1265.2000, -33.792
1265.3000, -33.828
1265.4000, -33.884
1265.5000, -33.916
1265.6000, -34.006
1265.7000, -34.051
1265.8000, -34.110
1265.9000, -34.145
1266.0000, -34.235
1266.1000, -34.129
1266.2000, -34.443
1266.3000, -34.391
1266.4000, -34.436
1266.5000, -34.464
1266.6000, -34.584
1266.7000, -34.697
1266.8000, -34.614
1266.9000, -34.768
1267.0000, -34.875
1267.1000, -34.788
1267.2000, -34.795
1267.3000, -34.859
1267.4000, -34.960
1267.5000, -34.969
1267.6000, -35.009
1267.7000, -35.128
1267.8000, -35.164
1267.9000, -35.164
1268.0000, -35.067
1268.1000, -35.287
1268.2000, -35.304
1268.3000, -35.399
1268.4000, -35.322
1268.5000, -35.450
1268.6000, -35.679
1268.7000, -35.650
1268.8000, -35.657
1268.9000, -35.539
1269.0000, -35.606
1269.1000, -35.815
1269.2000, -35.747
1269.3000, -35.801
1269.4000, -35.887
1269.5000, -35.901
1269.6000, -35.878
1269.7000, -36.033
1269.8000, -35.984
1269.9000, -36.073
1270.0000, -36.104
1270.1000, -36.038
1270.2000, -36.169
1270.3000, -36.189
1270.4000, -36.094
1270.5000, -36.330
1270.6000, -36.318
1270.7000, -36.454
1270.8000, -36.394
1270.9000, -36.518
1271.0000, -36.372
1271.1000, -36.487
1271.2000, -36.517
1271.3000, -36.607
1271.4000, -36.573
1271.5000, -36.652
1271.6000, -36.616
1271.7000, -36.686
1271.8000, -36.843
1271.9000, -36.683
1272.0000, -36.850
1272.1000, -36.878
1272.2000, -36.803
1272.3000, -36.995
1272.4000, -37.010
1272.5000, -36.875
1272.6000, -37.025
1272.7000, -36.985
1272.8000, -37.027
1272.9000, -37.034
1273.0000, -37.089
1273.1000, -37.090
1273.2000, -37.130
1273.3000, -37.008
1273.4000, -37.075
1273.5000, -37.162
1273.6000, -37.226
1273.7000, -37.241
1273.8000, -37.234
1273.9000, -37.219
1274.0000, -37.268
1274.1000, -37.284
1274.2000, -37.354
1274.3000, -37.431
1274.4000, -37.330
1274.5000, -37.412
1274.6000, -37.479
1274.7000, -37.497
1274.8000, -37.414
1274.9000, -37.485
1275.0000, -37.458
1275.1000, -37.535
1275.2000, -37.530
1275.3000, -37.566
1275.4000, -37.539
1275.5000, -37.592
1275.6000, -37.592
1275.7000, -37.569
1275.8000, -37.577
1275.9000, -37.614
1276.0000, -37.610
1276.1000, -37.634
1276.2000, -37.590
1276.3000, -37.720
1276.4000, -37.692
1276.5000, -37.698
1276.6000, -37.617
1276.7000, -37.650
1276.8000, -37.721
1276.9000, -37.758
1277.0000, -37.684
1277.1000, -37.747
1277.2000, -37.677
1277.3000, -37.828
1277.4000, -37.797
1277.5000, -37.739
1277.6000, -37.761
1277.7000, -37.762
1277.8000, -37.773
1277.9000, -37.752
1278.0000, -37.838
1278.1000, -37.842
1278.2000, -37.791
1278.3000, -37.770
1278.4000, -37.687
1278.5000, -37.821
1278.6000, -37.789
1278.7000, -37.819
1278.8000, -37.827
1278.9000, -37.838
1279.0000, -37.797
1279.1000, -37.793
1279.2000, -37.842
1279.3000, -37.826
1279.4000, -37.826
1279.5000, -37.831
1279.6000, -37.721
1279.7000, -37.761
1279.8000, -37.761
1279.9000, -37.760
1280.0000, -37.724
1280.1000, -37.724
1280.2000, -37.799
1280.3000, -37.738
1280.4000, -37.685
1280.5000, -37.787
1280.6000, -37.795
1280.7000, -37.798
1280.8000, -37.772
1280.9000, -37.678
1281.0000, -37.665
1281.1000, -37.736
1281.2000, -37.737
1281.3000, -37.595
1281.4000, -37.538
1281.5000, -37.669
1281.6000, -37.625
1281.7000, -37.574
1281.8000, -37.576
1281.9000, -37.556
1282.0000, -37.525
1282.1000, -37.523
1282.2000, -37.431
1282.3000, -37.467
1282.4000, -37.480
1282.5000, -37.489
1282.6000, -37.348
1282.7000, -37.358
1282.8000, -37.440
1282.9000, -37.302
1283.0000, -37.306
1283.1000, -37.372
1283.2000, -37.338
1283.3000, -37.318
1283.4000, -37.231
1283.5000, -37.213
1283.6000, -37.305
1283.7000, -37.235
1283.8000, -37.169
1283.9000, -37.144
1284.0000, -37.093
1284.1000, -37.095
1284.2000, -37.121
1284.3000, -37.089
1284.4000, -37.071
1284.5000, -37.040
1284.6000, -36.922
1284.7000, -36.921
1284.8000, -36.889
1284.9000, -36.842
1285.0000, -36.941
1285.1000, -36.875
1285.2000, -36.720
1285.3000, -36.834
1285.4000, -36.775
1285.5000, -36.659
1285.6000, -36.643
1285.7000, -36.609
1285.8000, -36.596
1285.9000, -36.520
1286.0000, -36.552
1286.1000, -36.525
1286.2000, -36.387
1286.3000, -36.431
1286.4000, -36.432
1286.5000, -36.438
1286.6000, -36.287
1286.7000, -36.291
1286.8000, -36.219
1286.9000, -36.234
1287.0000, -36.112
1287.1000, -36.137
1287.2000, -36.036
1287.3000, -36.083
1287.4000, -35.905
1287.5000, -36.050
1287.6000, -35.950
1287.7000, -35.875
1287.8000, -35.818
1287.9000, -35.922
1288.0000, -35.869
1288.1000, -35.828
1288.2000, -35.744
1288.3000, -35.664
1288.4000, -35.582
1288.5000, -35.704
1288.6000, -35.569
1288.7000, -35.524
1288.8000, -35.432
1288.9000, -35.493
1289.0000, -35.402
1289.1000, -35.359
1289.2000, -35.367
1289.3000, -35.233
1289.4000, -35.174
1289.5000, -35.263
1289.6000, -35.160
1289.7000, -35.103
1289.8000, -35.038
1289.9000, -34.942
1290.0000, -34.912
1290.1000, -35.011
1290.2000, -34.914
1290.3000, -34.853
1290.4000, -34.742
1290.5000, -34.725
1290.6000, -34.747
1290.7000, -34.652
1290.8000, -34.492
1290.9000, -34.484
1291.0000, -34.467
1291.1000, -34.489
1291.2000, -34.331
1291.3000, -34.322
1291.4000, -34.321
1291.5000, -34.142
1291.6000, -34.222
1291.7000, -34.125
1291.8000, -34.066
1291.9000, -34.004
1292.0000, -33.927
1292.1000, -33.887
1292.2000, -33.737
1292.3000, -33.734
1292.4000, -33.829
1292.5000, -33.614
1292.6000, -33.717
1292.7000, -33.655
1292.8000, -33.495
1292.9000, -33.611
1293.0000, -33.338
1293.1000, -33.324
1293.2000, -33.309
1293.3000, -33.045
1293.4000, -33.124
1293.5000, -33.116
1293.6000, -33.155
1293.7000, -33.108
1293.8000, -32.931
1293.9000, -32.851
1294.0000, -32.731
1294.1000, -32.823
1294.2000, -32.696
1294.3000, -32.591
1294.4000, -32.629
1294.5000, -32.443
1294.6000, -32.544
1294.7000, -32.358
1294.8000, -32.357
1294.9000, -32.389
1295.0000, -32.233
1295.1000, -32.109
1295.2000, -32.068
1295.3000, -32.047
1295.4000, -31.972
1295.5000, -31.982
1295.6000, -31.811
1295.7000, -31.805
1295.8000, -31.624
1295.9000, -31.647
1296.0000, -31.658
1296.1000, -31.563
1296.2000, -31.355
1296.3000, -31.412
1296.4000, -31.337
1296.5000, -31.339
1296.6000, -31.250
1296.7000, -31.107
1296.8000, -31.197
1296.9000, -31.019
1297.0000, -31.039
1297.1000, -30.902
1297.2000, -30.832
1297.3000, -30.765
1297.4000, -30.644
1297.5000, -30.709
1297.6000, -30.649
1297.7000, -30.546
1297.8000, -30.386
1297.9000, -30.426
1298.0000, -30.350
1298.1000, -30.283
1298.2000, -30.140
1298.3000, -30.176
1298.4000, -30.035
1298.5000, -29.907
1298.6000, -29.963
1298.7000, -29.992
1298.8000, -29.835
1298.9000, -29.858
1299.0000, -29.753
1299.1000, -29.791
1299.2000, -29.581
1299.3000, -29.386
1299.4000, -29.405
1299.5000, -29.287
1299.6000, -29.345
1299.7000, -29.103
1299.8000, -29.183
1299.9000, -29.162
1300.0000, -29.119
1300.1000, -28.981
1300.2000, -29.029
1300.3000, -28.953
1300.4000, -28.760
1300.5000, -28.735
1300.6000, -28.597
1300.7000, -28.698
1300.8000, -28.610
1300.9000, -28.446
1301.0000, -28.508
1301.1000, -28.272
1301.2000, -28.273
1301.3000, -28.118
1301.4000, -28.049
1301.5000, -28.082
1301.6000, -27.910
1301.7000, -27.789
1301.8000, -27.903
1301.9000, -27.827
1302.0000, -27.784
1302.1000, -27.720
1302.2000, -27.589
1302.3000, -27.556
1302.4000, -27.533
1302.5000, -27.427
1302.6000, -27.420
1302.7000, -27.278
1302.8000, -27.234
1302.9000, -27.259
1303.0000, -27.138
1303.1000, -27.073
1303.2000, -26.925
1303.3000, -26.916
1303.4000, -26.765
1303.5000, -26.790
1303.6000, -26.712
1303.7000, -26.970
1303.8000, -26.749
1303.9000, -26.458
1304.0000, -26.575
1304.1000, -26.477
1304.2000, -26.370
1304.3000, -26.630
1304.4000, -26.266
1304.5000, -26.287
1304.6000, -26.168
1304.7000, -26.151
1304.8000, -26.294
1304.9000, -26.326
1305.0000, -26.176
1305.1000, -25.881
1305.2000, -25.751
1305.3000, -26.091
1305.4000, -26.040
1305.5000, -25.910
1305.6000, -25.917
1305.7000, -25.830
1305.8000, -26.009
1305.9000, -25.890
1306.0000, -25.813
1306.1000, -25.783
1306.2000, -25.793
1306.3000, -25.727
1306.4000, -25.928
1306.5000, -25.851
1306.6000, -25.826
1306.7000, -25.706
1306.8000, -25.739
1306.9000, -25.794
1307.0000, -25.793
1307.1000, -25.769
1307.2000, -25.753
1307.3000, -25.792
1307.4000, -26.038
1307.5000, -25.905
1307.6000, -25.941
1307.7000, -25.911
1307.8000, -25.922
1307.9000, -26.059
1308.0000, -26.088
1308.1000, -25.973
1308.2000, -25.905
1308.3000, -26.007
1308.4000, -26.044
1308.5000, -26.146
1308.6000, -26.228
1308.7000, -26.391
1308.8000, -26.262
1308.9000, -26.242
1309.0000, -26.448
1309.1000, -26.325
1309.2000, -26.624
1309.3000, -26.558
1309.4000, -26.646
1309.5000, -26.591
1309.6000, -26.654
1309.7000, -26.884
1309.8000, -26.969
1309.9000, -26.946
1310.0000, -26.906
1310.1000, -26.978
1310.2000, -27.121
1310.3000, -27.243
1310.4000, -27.273
1310.5000, -27.240
1310.6000, -27.466
1310.7000, -27.351
1310.8000, -27.555
1310.9000, -27.568
1311.0000, -27.663
1311.1000, -27.851
1311.2000, -27.857
1311.3000, -27.882
1311.4000, -28.101
1311.5000, -28.133
1311.6000, -28.088
1311.7000, -28.231
1311.8000, -28.363
1311.9000, -28.523
1312.0000, -28.581
1312.1000, -28.571
1312.2000, -28.700
1312.3000, -28.673
1312.4000, -28.865
1312.5000, -28.925
1312.6000, -28.901
1312.7000, -29.016
1312.8000, -29.074
1312.9000, -29.160
1313.0000, -29.217
1313.1000, -29.428
1313.2000, -29.502
1313.3000, -29.435
1313.4000, -29.468
1313.5000, -29.676
1313.6000, -29.732
1313.7000, -29.870
1313.8000, -29.997
1313.9000, -29.962
1314.0000, -30.045
1314.1000, -30.245
1314.2000, -30.138
1314.3000, -30.219
1314.4000, -30.300
1314.5000, -30.491
1314.6000, -30.370
1314.7000, -30.755
1314.8000, -30.704
1314.9000, -30.737
1315.0000, -30.837
1315.1000, -30.993
1315.2000, -31.062
1315.3000, -31.106
1315.4000, -31.130
1315.5000, -31.248
1315.6000, -31.322
1315.7000, -31.424
1315.8000, -31.546
1315.9000, -31.663
1316.0000, -31.525
1316.1000, -31.744
1316.2000, -31.741
1316.3000, -31.933
1316.4000, -31.919
1316.5000, -31.894
1316.6000, -32.105
1316.7000, -32.123
1316.8000, -32.218
1316.9000, -32.283
1317.0000, -32.277
1317.1000, -32.446
1317.2000, -32.617
1317.3000, -32.533
1317.4000, -32.726
1317.5000, -32.710
1317.6000, -32.767
1317.7000, -32.959
1317.8000, -33.005
1317.9000, -33.101
1318.0000, -33.076
1318.1000, -33.112
1318.2000, -33.369
1318.3000, -33.447
1318.4000, -33.353
1318.5000, -33.551
1318.6000, -33.571
1318.7000, -33.535
1318.8000, -33.674
1318.9000, -33.673
1319.0000, -33.696
1319.1000, -33.844
1319.2000, -33.952
1319.3000, -34.134
1319.4000, -34.104
1319.5000, -34.052
1319.6000, -34.227
1319.7000, -34.183
1319.8000, -34.307
1319.9000, -34.352
1320.0000, -34.484
1320.1000, -34.585
1320.2000, -34.582
1320.3000, -34.574
1320.4000, -34.690
1320.5000, -34.775
1320.6000, -34.866
1320.7000, -34.907
1320.8000, -34.934
1320.9000, -34.965
1321.0000, -35.188
1321.1000, -35.123
1321.2000, -35.164
1321.3000, -35.254
1321.4000, -35.220
1321.5000, -35.288
1321.6000, -35.471
1321.7000, -35.452
1321.8000, -35.598
1321.9000, -35.598
1322.0000, -35.603
1322.1000, -35.609
1322.2000, -35.774
1322.3000, -35.840
1322.4000, -35.801
1322.5000, -35.849
1322.6000, -35.978
1322.7000, -36.048
1322.8000, -36.028
1322.9000, -36.056
1323.0000, -36.229
1323.1000, -36.103
1323.2000, -36.191
1323.3000, -36.218
1323.4000, -36.409
1323.5000, -36.394
1323.6000, -36.334
1323.7000, -36.482
1323.8000, -36.321
1323.9000, -36.571
1324.0000, -36.491
1324.1000, -36.611
1324.2000, -36.618
1324.3000, -36.618
1324.4000, -36.674
1324.5000, -36.751
1324.6000, -36.741
1324.7000, -36.758
1324.8000, -36.870
1324.9000, -36.871
1325.0000, -36.885
1325.1000, -37.030
1325.2000, -37.037
1325.3000, -36.946
1325.4000, -36.951
1325.5000, -37.196
1325.6000, -37.154
1325.7000, -36.999
1325.8000, -37.164
1325.9000, -37.154
1326.0000, -37.139
1326.1000, -37.239
1326.2000, -37.338
1326.3000, -37.298
1326.4000, -37.322
1326.5000, -37.286
1326.6000, -37.317
1326.7000, -37.249
1326.8000, -37.353
1326.9000, -37.422
1327.0000, -37.416
1327.1000, -37.523
1327.2000, -37.408
1327.3000, -37.489
1327.4000, -37.511
1327.5000, -37.537
1327.6000, -37.505
1327.7000, -37.534
1327.8000, -37.516
1327.9000, -37.645
1328.0000, -37.557
1328.1000, -37.575
1328.2000, -37.640
1328.3000, -37.610
1328.4000, -37.646
1328.5000, -37.708
1328.6000, -37.545
1328.7000, -37.577
1328.8000, -37.651
1328.9000, -37.786
1329.0000, -37.701
1329.1000, -37.661
1329.2000, -37.726
1329.3000, -37.745
1329.4000, -37.786
1329.5000, -37.711
1329.6000, -37.724
1329.7000, -37.787
1329.8000, -37.770
1329.9000, -37.844
1330.0000, -37.834
1330.1000, -37.838
1330.2000, -38.009
1330.3000, -37.732
1330.4000, -37.658
1330.5000, -37.902
1330.6000, -37.859
1330.7000, -37.834
1330.8000, -37.895
1330.9000, -37.815
1331.0000, -37.847
1331.1000, -37.908
1331.2000, -37.893
1331.3000, -37.827
1331.4000, -37.862
1331.5000, -38.024
1331.6000, -37.894
1331.7000, -37.938
1331.8000, -37.922
1331.9000, -37.881
1332.0000, -37.846
1332.1000, -37.774
1332.2000, -37.988
1332.3000, -37.902
1332.4000, -37.931
1332.5000, -37.932
1332.6000, -37.912
1332.7000, -37.883
1332.8000, -37.899
1332.9000, -37.900
1333.0000, -37.951
1333.1000, -38.005
1333.2000, -37.834
1333.3000, -38.006
1333.4000, -37.816
1333.5000, -37.999
1333.6000, -37.869
1333.7000, -37.967
1333.8000, -37.914
1333.9000, -37.810
1334.0000, -37.881
1334.1000, -37.887
1334.2000, -37.830
1334.3000, -37.690
1334.4000, -37.916
1334.5000, -37.753
1334.6000, -37.836
1334.7000, -37.641
1334.8000, -37.777
1334.9000, -37.867
1335.0000, -37.770
1335.1000, -37.761
1335.2000, -37.813
1335.3000, -37.714
1335.4000, -37.768
1335.5000, -37.667
1335.6000, -37.637
1335.7000, -37.622
1335.8000, -37.667
1335.9000, -37.638
1336.0000, -37.623
1336.1000, -37.516
1336.2000, -37.714
1336.3000, -37.637
1336.4000, -37.683
1336.5000, -37.559
1336.6000, -37.569
1336.7000, -37.536
1336.8000, -37.597
1336.9000, -37.484
1337.0000, -37.592
1337.1000, -37.533
1337.2000, -37.609
1337.3000, -37.558
1337.4000, -37.517
1337.5000, -37.542
1337.6000, -37.430
1337.7000, -37.500
1337.8000, -37.232
1337.9000, -37.441
1338.0000, -37.419
1338.1000, -37.430
1338.2000, -37.384
1338.3000, -37.306
1338.4000, -37.302
1338.5000, -37.295
1338.6000, -37.214
1338.7000, -37.333
1338.8000, -37.310
1338.9000, -37.309
1339.0000, -37.366
1339.1000, -37.250
1339.2000, -37.248
1339.3000, -37.166
1339.4000, -37.230
1339.5000, -37.071
1339.6000, -37.192
1339.7000, -37.238
1339.8000, -37.156
1339.9000, -37.176
1340.0000, -37.098
1340.1000, -37.178
1340.2000, -37.064
1340.3000, -37.194
1340.4000, -37.081
1340.5000, -37.083
1340.6000, -37.228
1340.7000, -37.060
1340.8000, -37.006
1340.9000, -36.971
1341.0000, -36.950
1341.1000, -36.930
1341.2000, -36.874
1341.3000, -36.973
1341.4000, -36.849
1341.5000, -36.926
1341.6000, -36.823
1341.7000, -36.867
1341.8000, -36.894
1341.9000, -36.896
1342.0000, -36.942
1342.1000, -36.855
1342.2000, -36.862
1342.3000, -36.853
1342.4000, -36.739
1342.5000, -36.750
1342.6000, -36.729
1342.7000, -36.635
1342.8000, -36.688
1342.9000, -36.801
1343.0000, -36.751
1343.1000, -36.673
1343.2000, -36.736
1343.3000, -36.670
1343.4000, -36.669
1343.5000, -36.691
1343.6000, -36.537
1343.7000, -36.477
1343.8000, -36.574
1343.9000, -36.663
1344.0000, -36.585
1344.1000, -36.611
1344.2000, -36.628
1344.3000, -36.545
1344.4000, -36.586
1344.5000, -36.638
1344.6000, -36.576
1344.7000, -36.699
1344.8000, -36.496
1344.9000, -36.483
1345.0000, -36.549
1345.1000, -36.591
1345.2000, -36.352
1345.3000, -36.479
1345.4000, -36.458
1345.5000, -36.415
1345.6000, -36.459
1345.7000, -36.470
1345.8000, -36.468
1345.9000, -36.374
1346.0000, -36.443
1346.1000, -36.449
1346.2000, -36.442
1346.3000, -36.481
1346.4000, -36.317
1346.5000, -36.356
1346.6000, -36.275
1346.7000, -36.455
1346.8000, -36.401
1346.9000, -36.245
1347.0000, -36.267
1347.1000, -36.503
1347.2000, -36.339
1347.3000, -36.434
1347.4000, -36.258
1347.5000, -36.440
1347.6000, -36.282
1347.7000, -36.426
1347.8000, -36.434
1347.9000, -36.284
1348.0000, -36.389
1348.1000, -36.431
1348.2000, -36.345
1348.3000, -36.258
1348.4000, -36.375
1348.5000, -36.145
1348.6000, -36.308
1348.7000, -36.338
1348.8000, -36.159
1348.9000, -36.389
1349.0000, -36.421
1349.1000, -36.334
1349.2000, -36.324
1349.3000, -36.421
1349.4000, -36.543
1349.5000, -36.533
1349.6000, -36.415
1349.7000, -36.445
1349.8000, -36.451
1349.9000, -36.503
1350.0000, -36.389
1350.1000, -36.524
1350.2000, -36.415
1350.3000, -36.449
1350.4000, -36.596
1350.5000, -36.610
1350.6000, -36.665
1350.7000, -36.476
1350.8000, -36.544
1350.9000, -36.566
1351.0000, -36.287
1351.1000, -36.397
1351.2000, -36.324
1351.3000, -36.384
1351.4000, -36.594
1351.5000, -36.557
1351.6000, -36.780
1351.7000, -36.714
1351.8000, -36.586
1351.9000, -36.748
1352.0000, -36.767
1352.1000, -36.743
1352.2000, -36.695
1352.3000, -36.743
1352.4000, -36.786
1352.5000, -36.881
1352.6000, -36.803
1352.7000, -36.784
1352.8000, -36.988
1352.9000, -36.969
1353.0000, -36.877
1353.1000, -36.999
1353.2000, -36.994
1353.3000, -36.981
1353.4000, -37.044
1353.5000, -36.765
1353.6000, -36.987
1353.7000, -37.123
1353.8000, -36.999
1353.9000, -37.087
1354.0000, -36.925
1354.1000, -36.896
1354.2000, -37.132
1354.3000, -37.113
1354.4000, -36.897
1354.5000, -37.330
1354.6000, -37.236
1354.7000, -37.318
1354.8000, -37.459
1354.9000, -37.670
1355.0000, -37.339
1355.1000, -37.278
1355.2000, -37.191
1355.3000, -37.373
1355.4000, -37.252
1355.5000, -37.312
1355.6000, -37.446
1355.7000, -37.688
1355.8000, -37.621
1355.9000, -37.749
1356.0000, -37.661
1356.1000, -37.503
1356.2000, -37.380
1356.3000, -37.195
1356.4000, -37.192
1356.5000, -37.327
1356.6000, -37.253
1356.7000, -37.506
1356.8000, -37.363
1356.9000, -37.590
1357.0000, -37.847
1357.1000, -37.818
1357.2000, -37.827
1357.3000, -37.681
1357.4000, -37.695
1357.5000, -37.688
1357.6000, -37.603
1357.7000, -37.629
1357.8000, -37.742
1357.9000, -37.489
1358.0000, -37.704
1358.1000, -37.676
1358.2000, -37.906
1358.3000, -37.881
1358.4000, -37.806
1358.5000, -37.901
1358.6000, -37.835
1358.7000, -37.955
1358.8000, -37.887
1358.9000, -37.693
1359.0000, -37.832
1359.1000, -37.816
1359.2000, -37.736
1359.3000, -37.969
1359.4000, -38.008
1359.5000, -38.254
1359.6000, -38.301
1359.7000, -38.254
1359.8000, -38.177
1359.9000, -37.947
1360.0000, -38.134
1360.1000, -37.901
1360.2000, -38.085
1360.3000, -38.115
1360.4000, -37.844
1360.5000, -38.011
1360.6000, -38.151
1360.7000, -38.305
1360.8000, -38.237
1360.9000, -38.363
1361.0000, -38.515
1361.1000, -38.534
1361.2000, -38.112
1361.3000, -38.092
1361.4000, -38.160
1361.5000, -38.245
1361.6000, -38.311
1361.7000, -38.485
1361.8000, -38.522
1361.9000, -38.410
1362.0000, -38.471
1362.1000, -38.527
1362.2000, -38.867
1362.3000, -39.018
1362.4000, -38.980
1362.5000, -38.938
1362.6000, -38.960
1362.7000, -38.434
1362.8000, -38.242
1362.9000, -38.264
1363.0000, -38.214
1363.1000, -38.049
1363.2000, -38.160
1363.3000, -38.257
1363.4000, -38.245
1363.5000, -38.199
1363.6000, -38.076
1363.7000, -38.059
1363.8000, -38.313
1363.9000, -38.315
1364.0000, -38.233
1364.1000, -38.362
1364.2000, -38.200
1364.3000, -38.404
1364.4000, -38.465
1364.5000, -38.761
1364.6000, -38.758
1364.7000, -38.848
1364.8000, -38.787
1364.9000, -38.712
1365.0000, -38.096
1365.1000, -38.045
1365.2000, -38.292
1365.3000, -38.268
1365.4000, -38.531
1365.5000, -38.421
1365.6000, -38.328
1365.7000, -38.268
1365.8000, -38.271
1365.9000, -38.073
1366.0000, -38.034
1366.1000, -38.157
1366.2000, -38.347
1366.3000, -38.114
1366.4000, -38.065
1366.5000, -38.220
1366.6000, -38.081
1366.7000, -38.332
1366.8000, -38.272
1366.9000, -38.347
1367.0000, -38.302
1367.1000, -38.134
1367.2000, -38.077
1367.3000, -38.207
1367.4000, -38.081
1367.5000, -38.308
1367.6000, -38.361
1367.7000, -38.379
1367.8000, -38.549
1367.9000, -38.326
1368.0000, -38.460
1368.1000, -38.164
1368.2000, -38.009
1368.3000, -38.081
1368.4000, -38.422
1368.5000, -38.325
1368.6000, -38.418
1368.7000, -38.361
1368.8000, -38.316
1368.9000, -38.187
1369.0000, -38.023
1369.1000, -37.871
1369.2000, -37.927
1369.3000, -37.678
1369.4000, -37.899
1369.5000, -37.900
1369.6000, -37.826
1369.7000, -37.949
1369.8000, -38.064
1369.9000, -37.946
1370.0000, -38.078
1370.1000, -38.068
1370.2000, -38.120
1370.3000, -37.818
1370.4000, -37.711
1370.5000, -37.700
1370.6000, -37.691
1370.7000, -37.972
1370.8000, -38.119
1370.9000, -38.262
1371.0000, -38.075
1371.1000, -38.287
1371.2000, -38.174
1371.3000, -37.626
1371.4000, -37.583
1371.5000, -37.793
1371.6000, -37.596
1371.7000, -37.550
1371.8000, -37.757
1371.9000, -37.944
1372.0000, -37.781
1372.1000, -37.812
1372.2000, -37.716
1372.3000, -37.696
1372.4000, -37.626
1372.5000, -37.616
1372.6000, -37.488
1372.7000, -37.342
1372.8000, -37.410
1372.9000, -37.473
1373.0000, -37.383
1373.1000, -37.404
1373.2000, -37.293
1373.3000, -37.453
1373.4000, -37.408
1373.5000, -37.449
1373.6000, -37.447
1373.7000, -37.289
1373.8000, -37.309
1373.9000, -37.252
1374.0000, -37.254
1374.1000, -37.355
1374.2000, -37.223
1374.3000, -37.230
1374.4000, -37.309
1374.5000, -37.332
1374.6000, -37.290
1374.7000, -37.313
1374.8000, -37.321
1374.9000, -37.458
1375.0000, -37.214
1375.1000, -37.377
1375.2000, -37.255
1375.3000, -37.202
1375.4000, -37.025
1375.5000, -37.079
1375.6000, -37.063
1375.7000, -37.080
1375.8000, -37.065
1375.9000, -37.203
1376.0000, -37.081
1376.1000, -37.114
1376.2000, -36.875
1376.3000, -37.005
1376.4000, -37.049
1376.5000, -37.004
1376.6000, -37.099
1376.7000, -37.155
1376.8000, -37.144
1376.9000, -37.094
1377.0000, -37.204
1377.1000, -37.162
1377.2000, -37.236
1377.3000, -37.074
1377.4000, -37.083
1377.5000, -36.874
1377.6000, -36.860
1377.7000, -36.861
1377.8000, -36.719
1377.9000, -36.893
1378.0000, -36.803
1378.1000, -36.788
1378.2000, -36.855
1378.3000, -36.984
1378.4000, -37.060
1378.5000, -37.086
1378.6000, -37.112
1378.7000, -37.183
1378.8000, -37.130
1378.9000, -37.140
1379.0000, -37.170
1379.1000, -36.904
1379.2000, -36.781
1379.3000, -36.922
1379.4000, -36.772
1379.5000, -36.861
1379.6000, -36.802
1379.7000, -36.840
1379.8000, -36.712
1379.9000, -36.924
1380.0000, -36.930
1380.1000, -36.925
1380.2000, -36.971
1380.3000, -36.968
1380.4000, -37.205
1380.5000, -37.487
1380.6000, -37.754
1380.7000, -37.982
1380.8000, -37.736
1380.9000, -37.593
1381.0000, -37.466
1381.1000, -37.104
1381.2000, -37.055
1381.3000, -37.155
1381.4000, -36.900
1381.5000, -36.987
1381.6000, -36.879
1381.7000, -36.871
1381.8000, -36.952
1381.9000, -36.810
1382.0000, -36.946
1382.1000, -36.845
1382.2000, -36.936
1382.3000, -37.133
1382.4000, -37.283
1382.5000, -37.683
1382.6000, -37.822
1382.7000, -37.938
1382.8000, -37.851
1382.9000, -37.830
1383.0000, -37.385
1383.1000, -37.139
1383.2000, -37.114
1383.3000, -36.941
1383.4000, -36.923
1383.5000, -36.817
1383.6000, -36.765
1383.7000, -37.101
1383.8000, -37.053
1383.9000, -37.078
1384.0000, -36.938
1384.1000, -36.964
1384.2000, -36.846
1384.3000, -36.741
1384.4000, -36.793
1384.5000, -36.730
1384.6000, -36.672
1384.7000, -36.762
1384.8000, -36.972
1384.9000, -37.024
1385.0000, -37.093
1385.1000, -37.054
1385.2000, -37.128
1385.3000, -36.965
1385.4000, -36.991
1385.5000, -36.788
1385.6000, -36.641
1385.7000, -36.770
1385.8000, -36.767
1385.9000, -36.741
1386.0000, -36.558
1386.1000, -36.778
1386.2000, -36.815
1386.3000, -36.724
1386.4000, -36.647
1386.5000, -36.613
1386.6000, -36.664
1386.7000, -36.724
1386.8000, -36.535
1386.9000, -36.468
1387.0000, -36.493
1387.1000, -36.663
1387.2000, -36.605
1387.3000, -36.445
1387.4000, -36.541
1387.5000, -36.581
1387.6000, -36.599
1387.7000, -36.793
1387.8000, -36.862
1387.9000, -36.811
1388.0000, -36.937
1388.1000, -36.867
1388.2000, -36.848
1388.3000, -36.816
1388.4000, -36.981
1388.5000, -36.685
1388.6000, -36.465
1388.7000, -36.494
1388.8000, -36.456
1388.9000, -36.457
1389.0000, -36.371
1389.1000, -36.506
1389.2000, -36.392
1389.3000, -36.461
1389.4000, -36.241
1389.5000, -36.446
1389.6000, -36.310
1389.7000, -36.360
1389.8000, -36.394
1389.9000, -36.566
1390.0000, -36.468
1390.1000, -36.498
1390.2000, -36.295
1390.3000, -36.343
1390.4000, -36.357
1390.5000, -36.292
1390.6000, -36.334
1390.7000, -36.386
1390.8000, -36.099
1390.9000, -36.404
1391.0000, -36.293
1391.1000, -36.261
1391.2000, -36.260
1391.3000, -36.206
1391.4000, -36.143
1391.5000, -36.140
1391.6000, -36.135
1391.7000, -36.233
1391.8000, -36.058
1391.9000, -36.261
1392.0000, -36.139
1392.1000, -36.266
1392.2000, -36.345
1392.3000, -36.474
1392.4000, -36.696
1392.5000, -36.675
1392.6000, -36.767
1392.7000, -36.585
1392.8000, -36.512
1392.9000, -36.179
1393.0000, -36.066
1393.1000, -36.262
1393.2000, -36.070
1393.3000, -36.123
1393.4000, -36.061
1393.5000, -36.090
1393.6000, -36.094
1393.7000, -36.051
1393.8000, -36.143
1393.9000, -36.185
1394.0000, -35.987
1394.1000, -36.009
1394.2000, -36.090
1394.3000, -36.201
1394.4000, -36.103
1394.5000, -36.193
1394.6000, -36.204
1394.7000, -36.194
1394.8000, -36.427
1394.9000, -36.468
1395.0000, -36.543
1395.1000, -36.489
1395.2000, -36.394
1395.3000, -36.330
1395.4000, -36.287
1395.5000, -36.325
1395.6000, -36.336
1395.7000, -36.224
1395.8000, -36.247
1395.9000, -35.886
1396.0000, -35.990
1396.1000, -36.054
1396.2000, -36.359
1396.3000, -36.461
1396.4000, -36.598
1396.5000, -36.706
1396.6000, -36.495
1396.7000, -36.280
1396.8000, -36.117
1396.9000, -36.039
1397.0000, -36.064
1397.1000, -35.999
1397.2000, -36.065
1397.3000, -36.019
1397.4000, -36.067
1397.5000, -35.978
1397.6000, -35.970
1397.7000, -35.902
1397.8000, -35.986
1397.9000, -35.953
1398.0000, -35.945
1398.1000, -35.981
1398.2000, -35.928
1398.3000, -36.006
1398.4000, -36.018
1398.5000, -35.930
1398.6000, -36.042
1398.7000, -35.762
1398.8000, -35.962
1398.9000, -35.884
1399.0000, -35.894
1399.1000, -35.792
1399.2000, -36.054
1399.3000, -35.896
1399.4000, -36.314
1399.5000, -36.136
1399.6000, -36.073
1399.7000, -36.104
1399.8000, -36.109
1399.9000, -36.086
1400.0000, -36.136
1400.1000, -36.073
1400.2000, -35.985
1400.3000, -35.941
1400.4000, -35.960
1400.5000, -36.460
1400.6000, -36.418
1400.7000, -36.389
1400.8000, -36.522
1400.9000, -36.304
1401.0000, -36.049
1401.1000, -35.841
1401.2000, -36.023
1401.3000, -36.037
1401.4000, -36.050
1401.5000, -35.905
1401.6000, -36.017
1401.7000, -35.879
1401.8000, -35.818
1401.9000, -35.852
1402.0000, -35.886
1402.1000, -35.718
1402.2000, -35.675
1402.3000, -35.814
1402.4000, -35.771
1402.5000, -35.731
1402.6000, -35.701
1402.7000, -35.824
1402.8000, -35.635
1402.9000, -35.881
1403.0000, -35.687
1403.1000, -35.868
1403.2000, -35.727
1403.3000, -35.727
1403.4000, -35.680
1403.5000, -35.732
1403.6000, -35.648
1403.7000, -35.693
1403.8000, -35.769
1403.9000, -35.650
1404.0000, -35.718
1404.1000, -35.614
1404.2000, -35.643
1404.3000, -35.786
1404.4000, -35.713
1404.5000, -35.693
1404.6000, -35.672
1404.7000, -35.610
1404.8000, -35.956
1404.9000, -36.050
1405.0000, -36.049
1405.1000, -36.142
1405.2000, -36.014
1405.3000, -35.815
1405.4000, -35.630
1405.5000, -35.553
1405.6000, -35.441
1405.7000, -35.585
1405.8000, -35.415
1405.9000, -35.579
1406.0000, -35.399
1406.1000, -35.376
1406.2000, -35.517
1406.3000, -35.308
1406.4000, -35.415
1406.5000, -35.557
1406.6000, -35.467
1406.7000, -35.587
1406.8000, -35.615
1406.9000, -35.613
1407.0000, -35.498
1407.1000, -35.557
1407.2000, -35.731
1407.3000, -35.644
1407.4000, -35.714
1407.5000, -35.679
1407.6000, -35.330
1407.7000, -35.312
1407.8000, -35.376
1407.9000, -35.506
1408.0000, -35.257
1408.1000, -35.299
1408.2000, -35.415
1408.3000, -35.227
1408.4000, -35.243
1408.5000, -35.280
1408.6000, -35.281
1408.7000, -35.292
1408.8000, -35.360
1408.9000, -35.326
1409.0000, -35.297
1409.1000, -35.457
1409.2000, -35.344
1409.3000, -35.524
1409.4000, -35.661
1409.5000, -35.731
1409.6000, -35.489
1409.7000, -35.403
1409.8000, -35.123
1409.9000, -35.247
1410.0000, -35.193
1410.1000, -35.187
1410.2000, -35.062
1410.3000, -35.070
1410.4000, -35.206
1410.5000, -35.007
1410.6000, -35.119
1410.7000, -35.059
1410.8000, -35.156
1410.9000, -35.220
1411.0000, -35.113
1411.1000, -35.085
1411.2000, -34.999
1411.3000, -35.074
1411.4000, -35.102
1411.5000, -35.175
1411.6000, -35.137
1411.7000, -35.093
1411.8000, -35.023
1411.9000, -34.990
1412.0000, -35.033
1412.1000, -35.118
1412.2000, -35.146
1412.3000, -35.136
1412.4000, -35.140
1412.5000, -35.163
1412.6000, -35.115
1412.7000, -35.162
1412.8000, -34.924
1412.9000, -35.076
1413.0000, -34.898
1413.1000, -34.968
1413.2000, -35.041
1413.3000, -35.126
1413.4000, -35.143
1413.5000, -35.152
1413.6000, -35.144
1413.7000, -34.984
1413.8000, -34.999
1413.9000, -35.133
1414.0000, -35.182
1414.1000, -35.276
1414.2000, -35.294
1414.3000, -35.403
1414.4000, -35.233
1414.5000, -35.265
1414.6000, -35.037
1414.7000, -35.092
1414.8000, -35.432
1414.9000, -35.177
1415.0000, -35.175
1415.1000, -35.096
1415.2000, -35.144
1415.3000, -35.186
1415.4000, -35.169
1415.5000, -35.142
1415.6000, -35.248
1415.7000, -35.181
1415.8000, -35.140
1415.9000, -35.107
1416.0000, -35.220
1416.1000, -35.308
1416.2000, -35.342
1416.3000, -35.100
1416.4000, -35.106
1416.5000, -35.218
1416.6000, -35.196
1416.7000, -34.913
1416.8000, -35.154
1416.9000, -35.249
1417.0000, -35.069
1417.1000, -35.095
1417.2000, -35.139
1417.3000, -35.221
1417.4000, -35.123
1417.5000, -35.276
1417.6000, -35.344
1417.7000, -35.275
1417.8000, -35.248
1417.9000, -35.232
1418.0000, -35.223
1418.1000, -35.158
1418.2000, -35.205
1418.3000, -35.226
1418.4000, -35.139
1418.5000, -35.150
1418.6000, -35.186
1418.7000, -35.328
1418.8000, -35.258
1418.9000, -35.371
1419.0000, -35.219
1419.1000, -35.332
1419.2000, -35.296
1419.3000, -35.213
1419.4000, -35.184
1419.5000, -35.223
1419.6000, -35.108
1419.7000, -35.216
1419.8000, -35.311
1419.9000, -35.345
1420.0000, -35.230
1420.1000, -35.270
1420.2000, -35.120
1420.3000, -35.200
1420.4000, -35.084
1420.5000, -35.254
1420.6000, -35.177
1420.7000, -35.133
1420.8000, -35.065
1420.9000, -35.052
1421.0000, -35.057
1421.1000, -34.995
1421.2000, -35.201
1421.3000, -35.126
1421.4000, -35.220
1421.5000, -35.068
1421.6000, -35.060
1421.7000, -35.148
1421.8000, -35.077
1421.9000, -34.954
1422.0000, -35.151
1422.1000, -35.014
1422.2000, -34.867
1422.3000, -34.905
1422.4000, -34.960
1422.5000, -34.879
1422.6000, -35.035
1422.7000, -34.942
1422.8000, -35.051
1422.9000, -35.093
1423.0000, -34.994
1423.1000, -34.774
1423.2000, -34.878
1423.3000, -35.080
1423.4000, -34.989
1423.5000, -34.961
1423.6000, -34.983
1423.7000, -34.970
1423.8000, -34.906
1423.9000, -34.763
1424.0000, -34.825
1424.1000, -34.881
1424.2000, -34.840
1424.3000, -34.697
1424.4000, -34.739
1424.5000, -34.737
1424.6000, -34.852
1424.7000, -34.840
1424.8000, -34.816
1424.9000, -34.710
1425.0000, -34.710
1425.1000, -34.583
1425.2000, -34.786
1425.3000, -34.656
1425.4000, -34.604
1425.5000, -34.611
1425.6000, -34.561
1425.7000, -34.605
1425.8000, -34.483
1425.9000, -34.580
1426.0000, -34.513
1426.1000, -34.594
1426.2000, -34.575
1426.3000, -34.468
1426.4000, -34.321
1426.5000, -34.431
1426.6000, -34.569
1426.7000, -34.386
1426.8000, -34.398
1426.9000, -34.449
1427.0000, -34.364
1427.1000, -34.502
1427.2000, -34.496
1427.3000, -34.401
1427.4000, -34.400
1427.5000, -34.299
1427.6000, -34.330
1427.7000, -34.293
1427.8000, -34.251
1427.9000, -34.258
1428.0000, -34.160
1428.1000, -34.201
1428.2000, -34.324
1428.3000, -34.364
1428.4000, -34.277
1428.5000, -34.267
1428.6000, -34.188
1428.7000, -34.290
1428.8000, -34.118
1428.9000, -34.132
1429.0000, -34.276
1429.1000, -34.203
1429.2000, -34.091
1429.3000, -34.020
1429.4000, -34.070
1429.5000, -34.205
1429.6000, -34.080
1429.7000, -34.225
1429.8000, -34.096
1429.9000, -33.956
1430.0000, -34.037
1430.1000, -34.035
1430.2000, -33.850
1430.3000, -33.875
1430.4000, -34.013
1430.5000, -34.091
1430.6000, -33.969
1430.7000, -34.109
1430.8000, -33.922
1430.9000, -33.879
1431.0000, -33.984
1431.1000, -34.066
1431.2000, -33.999
1431.3000, -33.929
1431.4000, -33.890
1431.5000, -34.041
1431.6000, -33.931
1431.7000, -33.913
1431.8000, -34.056
1431.9000, -33.922
1432.0000, -33.879
1432.1000, -33.870
1432.2000, -33.930
1432.3000, -33.837
1432.4000, -33.843
1432.5000, -33.904
1432.6000, -33.971
1432.7000, -33.817
1432.8000, -33.928
1432.9000, -33.763
1433.0000, -33.785
1433.1000, -33.761
1433.2000, -33.839
1433.3000, -33.749
1433.4000, -33.802
1433.5000, -33.830
1433.6000, -33.779
1433.7000, -33.726
1433.8000, -33.571
1433.9000, -33.638
1434.0000, -33.647
1434.1000, -33.754
1434.2000, -33.700
1434.3000, -33.778
1434.4000, -33.827
1434.5000, -33.780
1434.6000, -33.880
1434.7000, -33.626
1434.8000, -33.638
1434.9000, -33.689
1435.0000, -33.517
1435.1000, -33.771
1435.2000, -33.677
1435.3000, -33.523
1435.4000, -33.572
1435.5000, -33.641
1435.6000, -33.595
1435.7000, -33.549
1435.8000, -33.379
1435.9000, -33.563
1436.0000, -33.634
1436.1000, -33.652
1436.2000, -33.544
1436.3000, -33.468
1436.4000, -33.481
1436.5000, -33.445
1436.6000, -33.415
1436.7000, -33.400
1436.8000, -33.415
1436.9000, -33.405
1437.0000, -33.376
1437.1000, -33.492
1437.2000, -33.424
1437.3000, -33.439
1437.4000, -33.437
1437.5000, -33.358
1437.6000, -33.451
1437.7000, -33.392
1437.8000, -33.281
1437.9000, -33.376
1438.0000, -33.408
1438.1000, -33.343
1438.2000, -33.247
1438.3000, -33.333
1438.4000, -33.387
1438.5000, -33.348
1438.6000, -33.257
1438.7000, -33.281
1438.8000, -33.277
1438.9000, -33.101
1439.0000, -33.204
1439.1000, -33.293
1439.2000, -33.172
1439.3000, -33.309
1439.4000, -33.275
1439.5000, -33.296
1439.6000, -33.320
1439.7000, -33.139
1439.8000, -33.228
1439.9000, -33.152
1440.0000, -33.146
1440.1000, -33.250
1440.2000, -33.200
1440.3000, -33.210
1440.4000, -33.126
1440.5000, -33.069
1440.6000, -33.054
1440.7000, -33.057
1440.8000, -33.145
1440.9000, -32.961
1441.0000, -32.958
1441.1000, -33.076
1441.2000, -32.967
1441.3000, -32.904
1441.4000, -33.081
1441.5000, -33.025
1441.6000, -33.054
1441.7000, -33.025
1441.8000, -32.862
1441.9000, -33.014
1442.0000, -32.963
1442.1000, -32.970
1442.2000, -32.901
1442.3000, -33.050
1442.4000, -32.879
1442.5000, -32.940
1442.6000, -32.840
1442.7000, -32.804
1442.8000, -32.879
1442.9000, -32.924
1443.0000, -32.880
1443.1000, -32.952
1443.2000, -32.984
1443.3000, -32.803
1443.4000, -32.843
1443.5000, -32.710
1443.6000, -32.884
1443.7000, -32.736
1443.8000, -32.780
1443.9000, -32.760
1444.0000, -32.743
1444.1000, -32.718
1444.2000, -32.803
1444.3000, -32.805
1444.4000, -32.724
1444.5000, -32.753
1444.6000, -32.653
1444.7000, -32.577
1444.8000, -32.614
1444.9000, -32.767
1445.0000, -32.833
1445.1000, -32.606
1445.2000, -32.616
1445.3000, -32.635
1445.4000, -32.751
1445.5000, -32.765
1445.6000, -32.751
1445.7000, -32.734
1445.8000, -32.609
1445.9000, -32.765
1446.0000, -32.665
1446.1000, -32.608
1446.2000, -32.638
1446.3000, -32.551
1446.4000, -32.606
1446.5000, -32.436
1446.6000, -32.570
1446.7000, -32.434
1446.8000, -32.660
1446.9000, -32.712
1447.0000, -32.598
1447.1000, -32.591
1447.2000, -32.569
1447.3000, -32.598
1447.4000, -32.655
1447.5000, -32.608
1447.6000, -32.522
1447.7000, -32.448
1447.8000, -32.609
1447.9000, -32.609
1448.0000, -32.634
1448.1000, -32.366
1448.2000, -32.388
1448.3000, -32.549
1448.4000, -32.575
1448.5000, -32.631
1448.6000, -32.639
1448.7000, -32.632
1448.8000, -32.535
1448.9000, -32.665
1449.0000, -32.575
1449.1000, -32.579
1449.2000, -32.538
1449.3000, -32.464
1449.4000, -32.563
1449.5000, -32.667
1449.6000, -32.672
1449.7000, -32.515
1449.8000, -32.629
1449.9000, -32.772
1450.0000, -32.511
1450.1000, -32.580
1450.2000, -32.527
1450.3000, -32.652
1450.4000, -32.690
1450.5000, -32.623
1450.6000, -32.746
1450.7000, -32.658
1450.8000, -32.769
1450.9000, -32.692
1451.0000, -32.747
1451.1000, -32.788
1451.2000, -32.718
1451.3000, -32.796
1451.4000, -32.741
1451.5000, -32.797
1451.6000, -32.611
1451.7000, -32.712
1451.8000, -32.763
1451.9000, -32.753
1452.0000, -32.692
1452.1000, -32.676
1452.2000, -32.875
1452.3000, -32.813
1452.4000, -32.806
1452.5000, -32.748
1452.6000, -32.694
1452.7000, -32.693
1452.8000, -32.723
1452.9000, -32.863
1453.0000, -32.665
1453.1000, -32.845
1453.2000, -32.701
1453.3000, -32.790
1453.4000, -32.816
1453.5000, -32.704
1453.6000, -32.727
1453.7000, -32.832
1453.8000, -32.752
1453.9000, -32.667
1454.0000, -32.856
1454.1000, -32.721
1454.2000, -32.767
1454.3000, -32.727
1454.4000, -32.805
1454.5000, -32.727
1454.6000, -32.792
1454.7000, -32.673
1454.8000, -32.765
1454.9000, -32.691
1455.0000, -32.748
1455.1000, -32.758
1455.2000, -32.872
1455.3000, -32.728
1455.4000, -32.727
1455.5000, -32.713
1455.6000, -32.659
1455.7000, -32.784
1455.8000, -32.778
1455.9000, -32.793
1456.0000, -32.787
1456.1000, -32.622
1456.2000, -32.662
1456.3000, -32.780
1456.4000, -32.794
1456.5000, -32.713
1456.6000, -32.709
1456.7000, -32.613
1456.8000, -32.626
1456.9000, -32.658
1457.0000, -32.555
1457.1000, -32.602
1457.2000, -32.621
1457.3000, -32.617
1457.4000, -32.656
1457.5000, -32.568
1457.6000, -32.518
1457.7000, -32.612
1457.8000, -32.651
1457.9000, -32.462
1458.0000, -32.364
1458.1000, -32.503
1458.2000, -32.585
1458.3000, -32.539
1458.4000, -32.394
1458.5000, -32.479
1458.6000, -32.416
1458.7000, -32.441
1458.8000, -32.305
1458.9000, -32.380
1459.0000, -32.326
1459.1000, -32.507
1459.2000, -32.409
1459.3000, -32.356
1459.4000, -32.323
1459.5000, -32.270
1459.6000, -32.265
1459.7000, -32.171
1459.8000, -32.268
1459.9000, -32.313
1460.0000, -32.207
1460.1000, -32.287
1460.2000, -32.162
1460.3000, -32.051
1460.4000, -32.220
1460.5000, -32.217
1460.6000, -32.145
1460.7000, -32.265
1460.8000, -32.022
1460.9000, -32.069
1461.0000, -32.039
1461.1000, -31.950
1461.2000, -31.967
1461.3000, -32.042
1461.4000, -31.932
1461.5000, -31.942
1461.6000, -31.955
1461.7000, -31.904
1461.8000, -32.007
1461.9000, -31.853
1462.0000, -31.973
1462.1000, -31.796
1462.2000, -31.741
1462.3000, -31.884
1462.4000, -31.862
1462.5000, -31.751
1462.6000, -31.712
1462.7000, -31.822
1462.8000, -31.655
1462.9000, -31.775
1463.0000, -31.798
1463.1000, -31.834
1463.2000, -31.798
1463.3000, -31.737
1463.4000, -31.834
1463.5000, -31.512
1463.6000, -31.561
1463.7000, -31.642
1463.8000, -31.450
1463.9000, -31.598
1464.0000, -31.509
1464.1000, -31.553
1464.2000, -31.643
1464.3000, -31.608
1464.4000, -31.498
1464.5000, -31.467
1464.6000, -31.441
1464.7000, -31.393
1464.8000, -31.487
1464.9000, -31.429
1465.0000, -31.451
1465.1000, -31.495
1465.2000, -31.436
1465.3000, -31.477
1465.4000, -31.467
1465.5000, -31.424
1465.6000, -31.300
1465.7000, -31.334
1465.8000, -31.314
1465.9000, -31.388
1466.0000, -31.376
1466.1000, -31.221
1466.2000, -31.316
1466.3000, -31.458
1466.4000, -31.328
1466.5000, -31.375
1466.6000, -31.244
1466.7000, -31.272
1466.8000, -31.275
1466.9000, -31.379
1467.0000, -31.287
1467.1000, -31.286
1467.2000, -31.357
1467.3000, -31.363
1467.4000, -31.407
1467.5000, -31.438
1467.6000, -31.380
1467.7000, -31.269
1467.8000, -31.374
1467.9000, -31.278
1468.0000, -31.286
1468.1000, -31.302
1468.2000, -31.303
1468.3000, -31.332
1468.4000, -31.352
1468.5000, -31.484
1468.6000, -31.433
1468.7000, -31.393
1468.8000, -31.346
1468.9000, -31.480
1469.0000, -31.370
1469.1000, -31.413
1469.2000, -31.440
1469.3000, -31.353
1469.4000, -31.487
1469.5000, -31.462
1469.6000, -31.594
1469.7000, -31.509
1469.8000, -31.705
1469.9000, -31.348
1470.0000, -31.378
1470.1000, -31.485
1470.2000, -31.354
1470.3000, -31.531
1470.4000, -31.549
1470.5000, -31.457
1470.6000, -31.576
1470.7000, -31.499
1470.8000, -31.558
1470.9000, -31.705
1471.0000, -31.605
1471.1000, -31.447
1471.2000, -31.608
1471.3000, -31.601
1471.4000, -31.524
1471.5000, -31.570
1471.6000, -31.539
1471.7000, -31.602
1471.8000, -31.421
1471.9000, -31.609
1472.0000, -31.550
1472.1000, -31.616
1472.2000, -31.703
1472.3000, -31.780
1472.4000, -31.644
1472.5000, -31.634
1472.6000, -31.688
1472.7000, -31.673
1472.8000, -31.632
1472.9000, -31.603
1473.0000, -31.591
1473.1000, -31.618
1473.2000, -31.565
1473.3000, -31.610
1473.4000, -31.727
1473.5000, -31.796
1473.6000, -31.669
1473.7000, -31.653
1473.8000, -31.648
1473.9000, -31.685
1474.0000, -31.648
1474.1000, -31.618
1474.2000, -31.638
1474.3000, -31.542
1474.4000, -31.654
1474.5000, -31.604
1474.6000, -31.642
1474.7000, -31.588
1474.8000, -31.720
1474.9000, -31.615
1475.0000, -31.735
1475.1000, -31.627
1475.2000, -31.714
1475.3000, -31.612
1475.4000, -31.691
1475.5000, -31.653
1475.6000, -31.631
1475.7000, -31.532
1475.8000, -31.703
1475.9000, -31.630
1476.0000, -31.755
1476.1000, -31.779
1476.2000, -31.762
1476.3000, -31.623
1476.4000, -31.751
1476.5000, -31.835
1476.6000, -31.757
1476.7000, -31.813
1476.8000, -31.846
1476.9000, -31.721
1477.0000, -31.766
1477.1000, -31.871
1477.2000, -31.852
1477.3000, -31.840
1477.4000, -31.840
1477.5000, -31.905
1477.6000, -31.728
1477.7000, -31.964
1477.8000, -32.013
1477.9000, -31.958
1478.0000, -31.901
1478.1000, -31.970
1478.2000, -31.999
1478.3000, -31.910
1478.4000, -32.096
1478.5000, -32.017
1478.6000, -32.059
1478.7000, -32.003
1478.8000, -32.034
1478.9000, -32.084
1479.0000, -32.096
1479.1000, -32.152
1479.2000, -32.100
1479.3000, -32.081
1479.4000, -32.147
1479.5000, -32.172
1479.6000, -32.131
1479.7000, -32.136
1479.8000, -32.156
1479.9000, -32.176
1480.0000, -32.294
1480.1000, -32.167
1480.2000, -32.191
1480.3000, -32.468
1480.4000, -32.254
1480.5000, -32.326
1480.6000, -32.333
1480.7000, -32.404
1480.8000, -32.262
1480.9000, -32.225
1481.0000, -32.355
1481.1000, -32.295
1481.2000, -32.310
1481.3000, -32.327
1481.4000, -32.373
1481.5000, -32.498
1481.6000, -32.510
1481.7000, -32.454
1481.8000, -32.420
1481.9000, -32.492
1482.0000, -32.564
1482.1000, -32.616
1482.2000, -32.481
1482.3000, -32.582
1482.4000, -32.643
1482.5000, -32.589
1482.6000, -32.567
1482.7000, -32.693
1482.8000, -32.708
1482.9000, -32.632
1483.0000, -32.719
1483.1000, -32.715
1483.2000, -32.697
1483.3000, -32.685
1483.4000, -32.836
1483.5000, -32.853
1483.6000, -32.835
1483.7000, -32.899
1483.8000, -32.865
1483.9000, -32.883
1484.0000, -32.952
1484.1000, -32.879
1484.2000, -32.892
1484.3000, -32.985
1484.4000, -33.085
1484.5000, -32.994
1484.6000, -32.976
1484.7000, -33.056
1484.8000, -32.982
1484.9000, -32.952
1485.0000, -33.128
1485.1000, -33.072
1485.2000, -33.201
1485.3000, -33.298
1485.4000, -33.216
1485.5000, -33.194
1485.6000, -33.185
1485.7000, -33.248
1485.8000, -33.394
1485.9000, -33.330
1486.0000, -33.404
1486.1000, -33.220
1486.2000, -33.377
1486.3000, -33.280
1486.4000, -33.348
1486.5000, -33.421
1486.6000, -33.408
1486.7000, -33.517
1486.8000, -33.613
1486.9000, -33.550
1487.0000, -33.404
1487.1000, -33.536
1487.2000, -33.544
1487.3000, -33.619
1487.4000, -33.526
1487.5000, -33.628
1487.6000, -33.697
1487.7000, -33.684
1487.8000, -33.702
1487.9000, -33.785
1488.0000, -33.701
1488.1000, -33.795
1488.2000, -33.856
1488.3000, -33.794
1488.4000, -33.766
1488.5000, -34.003
1488.6000, -33.956
1488.7000, -34.005
1488.8000, -34.007
1488.9000, -34.004
1489.0000, -33.999
1489.1000, -33.872
1489.2000, -34.087
1489.3000, -34.037
1489.4000, -34.099
1489.5000, -34.132
1489.6000, -34.134
1489.7000, -34.122
1489.8000, -34.094
1489.9000, -34.107
1490.0000, -34.359
1490.1000, -34.267
1490.2000, -34.071
1490.3000, -34.300
1490.4000, -34.255
1490.5000, -34.265
1490.6000, -34.436
1490.7000, -34.354
1490.8000, -34.292
1490.9000, -34.318
1491.0000, -34.378
1491.1000, -34.556
1491.2000, -34.304
1491.3000, -34.380
1491.4000, -34.332
1491.5000, -34.490
1491.6000, -34.365
1491.7000, -34.491
1491.8000, -34.485
1491.9000, -34.476
1492.0000, -34.465
1492.1000, -34.593
1492.2000, -34.520
1492.3000, -34.437
1492.4000, -34.509
1492.5000, -34.624
1492.6000, -34.524
1492.7000, -34.651
1492.8000, -34.526
1492.9000, -34.539
1493.0000, -34.567
1493.1000, -34.532
1493.2000, -34.544
1493.3000, -34.712
1493.4000, -34.656
1493.5000, -34.528
1493.6000, -34.626
1493.7000, -34.700
1493.8000, -34.625
1493.9000, -34.612
1494.0000, -34.679
1494.1000, -34.474
1494.2000, -34.746
1494.3000, -34.666
1494.4000, -34.664
1494.5000, -34.643
1494.6000, -34.639
1494.7000, -34.520
1494.8000, -34.519
1494.9000, -34.593
1495.0000, -34.643
1495.1000, -34.680
1495.2000, -34.625
1495.3000, -34.654
1495.4000, -34.484
1495.5000, -34.649
1495.6000, -34.485
1495.7000, -34.693
1495.8000, -34.513
1495.9000, -34.588
1496.0000, -34.601
1496.1000, -34.571
1496.2000, -34.596
1496.3000, -34.495
1496.4000, -34.560
1496.5000, -34.492
1496.6000, -34.444
1496.7000, -34.570
1496.8000, -34.543
1496.9000, -34.455
1497.0000, -34.365
1497.1000, -34.423
1497.2000, -34.501
1497.3000, -34.501
1497.4000, -34.382
1497.5000, -34.291
1497.6000, -34.405
1497.7000, -34.414
1497.8000, -34.446
1497.9000, -34.490
1498.0000, -34.381
1498.1000, -34.433
1498.2000, -34.416
1498.3000, -34.344
1498.4000, -34.399
1498.5000, -34.381
1498.6000, -34.386
1498.7000, -34.386
1498.8000, -34.341
1498.9000, -34.253
1499.0000, -34.187
1499.1000, -34.295
1499.2000, -34.355
1499.3000, -34.255
1499.4000, -34.177
1499.5000, -34.274
1499.6000, -34.363
1499.7000, -34.274
1499.8000, -34.280
1499.9000, -34.284
1500.0000, -34.239
1500.1000, -34.150
1500.2000, -34.150
1500.3000, -34.154
1500.4000, -34.298
1500.5000, -34.153
1500.6000, -34.220
1500.7000, -34.025
1500.8000, -34.098
1500.9000, -34.042
1501.0000, -34.184
1501.1000, -34.151
1501.2000, -34.006
1501.3000, -34.188
1501.4000, -34.247
1501.5000, -34.299
1501.6000, -34.136
1501.7000, -34.203
1501.8000, -34.057
1501.9000, -34.112
1502.0000, -34.159
1502.1000, -34.184
1502.2000, -34.085
1502.3000, -34.172
1502.4000, -34.091
1502.5000, -34.081
1502.6000, -34.062
1502.7000, -34.138
1502.8000, -34.104
1502.9000, -34.135
1503.0000, -34.185
1503.1000, -34.111
1503.2000, -34.038
1503.3000, -34.126
1503.4000, -34.191
1503.5000, -34.205
1503.6000, -34.147
1503.7000, -34.181
1503.8000, -34.137
1503.9000, -34.103
1504.0000, -34.046
1504.1000, -34.164
1504.2000, -34.259
1504.3000, -34.152
1504.4000, -34.091
1504.5000, -34.193
1504.6000, -34.076
1504.7000, -34.074
1504.8000, -34.091
1504.9000, -34.082
1505.0000, -34.183
1505.1000, -34.260
1505.2000, -34.050
1505.3000, -34.183
1505.4000, -34.205
1505.5000, -34.174
1505.6000, -34.305
1505.7000, -34.001
1505.8000, -34.190
1505.9000, -34.334
1506.0000, -34.071
1506.1000, -34.289
1506.2000, -34.180
1506.3000, -34.196
1506.4000, -34.277
1506.5000, -34.219
1506.6000, -34.175
1506.7000, -34.338
1506.8000, -34.230
1506.9000, -34.409
1507.0000, -34.238
1507.1000, -34.296
1507.2000, -34.254
1507.3000, -34.379
1507.4000, -34.307
1507.5000, -34.368
1507.6000, -34.362
1507.7000, -34.390
1507.8000, -34.388
1507.9000, -34.312
1508.0000, -34.308
1508.1000, -34.318
1508.2000, -34.338
1508.3000, -34.494
1508.4000, -34.421
1508.5000, -34.416
1508.6000, -34.463
1508.7000, -34.290
1508.8000, -34.510
1508.9000, -34.513
1509.0000, -34.413
1509.1000, -34.646
1509.2000, -34.552
1509.3000, -34.651
1509.4000, -34.653
1509.5000, -34.685
1509.6000, -34.641
1509.7000, -34.484
1509.8000, -34.592
1509.9000, -34.658
1510.0000, -34.807
1510.1000, -34.820
1510.2000, -34.792
1510.3000, -34.683
1510.4000, -34.766
1510.5000, -34.825
1510.6000, -34.735
1510.7000, -34.858
1510.8000, -34.859
1510.9000, -34.822
1511.0000, -34.895
1511.1000, -34.966
1511.2000, -34.864
1511.3000, -34.907
1511.4000, -34.885
1511.5000, -35.080
1511.6000, -35.028
1511.7000, -35.053
1511.8000, -34.993
1511.9000, -35.051
1512.0000, -35.067
1512.1000, -35.053
1512.2000, -35.058
1512.3000, -35.021
1512.4000, -35.143
1512.5000, -35.074
1512.6000, -35.192
1512.7000, -35.052
1512.8000, -35.085
1512.9000, -35.060
1513.0000, -35.138
1513.1000, -35.053
1513.2000, -35.178
1513.3000, -35.206
1513.4000, -35.245
1513.5000, -35.306
1513.6000, -35.244
1513.7000, -35.163
1513.8000, -35.235
1513.9000, -35.293
1514.0000, -35.252
1514.1000, -35.185
1514.2000, -35.292
1514.3000, -35.335
1514.4000, -35.214
1514.5000, -35.318
1514.6000, -35.343
1514.7000, -35.444
1514.8000, -35.239
1514.9000, -35.300
1515.0000, -35.339
1515.1000, -35.479
1515.2000, -35.432
1515.3000, -35.336
1515.4000, -35.373
1515.5000, -35.486
1515.6000, -35.332
1515.7000, -35.530
1515.8000, -35.376
1515.9000, -35.407
1516.0000, -35.498
1516.1000, -35.548
1516.2000, -35.584
1516.3000, -35.360
1516.4000, -35.502
1516.5000, -35.568
1516.6000, -35.646
1516.7000, -35.465
1516.8000, -35.669
1516.9000, -35.514
1517.0000, -35.569
1517.1000, -35.479
1517.2000, -35.642
1517.3000, -35.548
1517.4000, -35.675
1517.5000, -35.708
1517.6000, -35.637
1517.7000, -35.643
1517.8000, -35.656
1517.9000, -35.630
1518.0000, -35.576
1518.1000, -35.787
1518.2000, -35.625
1518.3000, -35.733
1518.4000, -35.766
1518.5000, -35.616
1518.6000, -35.945
1518.7000, -35.724
1518.8000, -35.699
1518.9000, -35.940
1519.0000, -35.732
1519.1000, -35.894
1519.2000, -35.784
1519.3000, -35.780
1519.4000, -35.990
1519.5000, -35.918
1519.6000, -35.999
1519.7000, -35.913
1519.8000, -35.947
1519.9000, -36.106
1520.0000, -35.955
1520.1000, -36.002
1520.2000, -36.160
1520.3000, -36.087
1520.4000, -36.103
1520.5000, -36.097
1520.6000, -36.082
1520.7000, -36.185
1520.8000, -36.097
1520.9000, -36.309
1521.0000, -36.176
1521.1000, -36.136
1521.2000, -36.036
1521.3000, -36.316
1521.4000, -36.207
1521.5000, -36.222
1521.6000, -36.311
1521.7000, -36.253
1521.8000, -36.390
1521.9000, -36.378
1522.0000, -36.403
1522.1000, -36.348
1522.2000, -36.412
1522.3000, -36.456
1522.4000, -36.542
1522.5000, -36.504
1522.6000, -36.520
1522.7000, -36.425
1522.8000, -36.600
1522.9000, -36.636
1523.0000, -36.577
1523.1000, -36.615
1523.2000, -36.614
1523.3000, -36.691
1523.4000, -36.568
1523.5000, -36.713
1523.6000, -36.748
1523.7000, -36.648
1523.8000, -36.688
1523.9000, -36.675
1524.0000, -36.769
1524.1000, -36.865
1524.2000, -36.829
1524.3000, -36.976
1524.4000, -36.876
1524.5000, -36.821
1524.6000, -36.992
1524.7000, -36.978
1524.8000, -36.945
1524.9000, -36.885
1525.0000, -36.980
1525.1000, -37.073
1525.2000, -37.095
1525.3000, -37.014
1525.4000, -37.191
1525.5000, -37.174
1525.6000, -37.068
1525.7000, -37.203
1525.8000, -37.318
1525.9000, -37.237
1526.0000, -37.223
1526.1000, -37.228
1526.2000, -37.115
1526.3000, -37.248
1526.4000, -37.440
1526.5000, -37.361
1526.6000, -37.413
1526.7000, -37.168
1526.8000, -37.282
1526.9000, -37.390
1527.0000, -37.284
1527.1000, -37.391
1527.2000, -37.389
1527.3000, -37.383
1527.4000, -37.486
1527.5000, -37.444
1527.6000, -37.425
1527.7000, -37.456
1527.8000, -37.523
1527.9000, -37.407
1528.0000, -37.381
1528.1000, -37.492
1528.2000, -37.273
1528.3000, -37.364
1528.4000, -37.490
1528.5000, -37.585
1528.6000, -37.504
1528.7000, -37.604
1528.8000, -37.499
1528.9000, -37.404
1529.0000, -37.524
1529.1000, -37.544
1529.2000, -37.513
1529.3000, -37.486
1529.4000, -37.575
1529.5000, -37.490
1529.6000, -37.450
1529.7000, -37.586
1529.8000, -37.613
1529.9000, -37.665
1530.0000, -37.510
1530.1000, -37.653
1530.2000, -37.436
1530.3000, -37.498
1530.4000, -37.565
1530.5000, -37.434
1530.6000, -37.573
1530.7000, -37.541
1530.8000, -37.494
1530.9000, -37.432
1531.0000, -37.519
1531.1000, -37.581
1531.2000, -37.453
1531.3000, -37.643
1531.4000, -37.548
1531.5000, -37.401
1531.6000, -37.428
1531.7000, -37.525
1531.8000, -37.416
1531.9000, -37.503
1532.0000, -37.410
1532.1000, -37.555
1532.2000, -37.389
1532.3000, -37.545
1532.4000, -37.491
1532.5000, -37.534
1532.6000, -37.535
1532.7000, -37.414
1532.8000, -37.528
1532.9000, -37.349
1533.0000, -37.410
1533.1000, -37.433
1533.2000, -37.484
1533.3000, -37.264
1533.4000, -37.373
1533.5000, -37.382
1533.6000, -37.254
1533.7000, -37.517
1533.8000, -37.449
1533.9000, -37.523
1534.0000, -37.435
1534.1000, -37.482
1534.2000, -37.340
1534.3000, -37.276
1534.4000, -37.420
1534.5000, -37.321
1534.6000, -37.433
1534.7000, -37.337
1534.8000, -37.329
1534.9000, -37.313
1535.0000, -37.386
1535.1000, -37.327
1535.2000, -37.341
1535.3000, -37.289
1535.4000, -37.240
1535.5000, -37.275
1535.6000, -37.382
1535.7000, -37.338
1535.8000, -37.382
1535.9000, -37.432
1536.0000, -37.255
1536.1000, -37.420
1536.2000, -37.328
1536.3000, -37.305
1536.4000, -37.385
1536.5000, -37.319
1536.6000, -37.395
1536.7000, -37.307
1536.8000, -37.254
1536.9000, -37.290
1537.0000, -37.231
1537.1000, -37.104
1537.2000, -37.424
1537.3000, -37.178
1537.4000, -37.378
1537.5000, -37.108
1537.6000, -37.108
1537.7000, -37.153
1537.8000, -37.313
1537.9000, -37.182
1538.0000, -37.132
1538.1000, -37.275
1538.2000, -37.171
1538.3000, -37.148
1538.4000, -37.147
1538.5000, -37.102
1538.6000, -37.155
1538.7000, -37.018
1538.8000, -37.188
1538.9000, -37.032
1539.0000, -36.960
1539.1000, -37.112
1539.2000, -37.091
1539.3000, -36.967
1539.4000, -36.963
1539.5000, -36.990
1539.6000, -36.999
1539.7000, -37.015
1539.8000, -37.127
1539.9000, -37.144
1540.0000, -37.156
1540.1000, -37.145
1540.2000, -37.015
1540.3000, -36.973
1540.4000, -37.081
1540.5000, -36.993
1540.6000, -36.975
1540.7000, -37.077
1540.8000, -36.949
1540.9000, -36.841
1541.0000, -36.934
1541.1000, -36.924
1541.2000, -36.963
1541.3000, -36.929
1541.4000, -36.915
1541.5000, -36.950
1541.6000, -36.909
1541.7000, -36.818
1541.8000, -36.893
1541.9000, -36.952
1542.0000, -36.960
1542.1000, -36.841
1542.2000, -36.851
1542.3000, -36.888
1542.4000, -36.819
1542.5000, -36.896
1542.6000, -36.916
1542.7000, -36.778
1542.8000, -36.852
1542.9000, -36.877
1543.0000, -36.786
1543.1000, -36.728
1543.2000, -36.761
1543.3000, -36.807
1543.4000, -36.837
1543.5000, -36.764
1543.6000, -36.854
1543.7000, -36.705
1543.8000, -36.758
1543.9000, -36.788
1544.0000, -36.772
1544.1000, -36.807
1544.2000, -36.824
1544.3000, -36.847
1544.4000, -36.959
1544.5000, -36.699
1544.6000, -36.760
1544.7000, -36.845
1544.8000, -36.798
1544.9000, -36.876
1545.0000, -36.683
1545.1000, -36.796
1545.2000, -36.787
1545.3000, -36.843
1545.4000, -36.552
1545.5000, -36.776
1545.6000, -36.766
1545.7000, -36.848
1545.8000, -36.773
1545.9000, -36.710
1546.0000, -36.760
1546.1000, -36.783
1546.2000, -36.946
1546.3000, -36.885
1546.4000, -37.000
1546.5000, -36.892
1546.6000, -36.724
1546.7000, -36.851
1546.8000, -36.843
1546.9000, -36.855
1547.0000, -36.835
1547.1000, -36.793
1547.2000, -36.918
1547.3000, -36.889
1547.4000, -36.879
1547.5000, -36.823
1547.6000, -36.834
1547.7000, -36.927
1547.8000, -36.932
1547.9000, -36.848
1548.0000, -36.894
1548.1000, -36.991
1548.2000, -36.900
1548.3000, -36.988
1548.4000, -36.951
1548.5000, -36.965
1548.6000, -37.023
1548.7000, -37.140
1548.8000, -37.016
1548.9000, -36.981
1549.0000, -36.994
1549.1000, -37.102
1549.2000, -36.928
1549.3000, -37.128
1549.4000, -37.061
1549.5000, -37.103
1549.6000, -37.138
1549.7000, -37.108
1549.8000, -37.157
1549.9000, -37.069
1550.0000, -37.304
1550.1000, -37.268
1550.2000, -37.270
1550.3000, -37.195
1550.4000, -37.222
1550.5000, -37.348
1550.6000, -37.200
1550.7000, -37.441
1550.8000, -37.272
1550.9000, -37.384
1551.0000, -37.349
1551.1000, -37.472
1551.2000, -37.461
1551.3000, -37.532
1551.4000, -37.545
1551.5000, -37.432
1551.6000, -37.522
1551.7000, -37.339
1551.8000, -37.493
1551.9000, -37.599
1552.0000, -37.592
1552.1000, -37.562
1552.2000, -37.498
1552.3000, -37.526
1552.4000, -37.643
1552.5000, -37.753
1552.6000, -37.727
1552.7000, -37.594
1552.8000, -37.856
1552.9000, -37.764
1553.0000, -37.771
1553.1000, -37.896
1553.2000, -37.741
1553.3000, -37.960
1553.4000, -37.808
1553.5000, -37.886
1553.6000, -37.803
1553.7000, -37.894
1553.8000, -38.001
1553.9000, -38.104
1554.0000, -37.894
1554.1000, -38.045
1554.2000, -38.196
1554.3000, -38.249
1554.4000, -38.080
1554.5000, -38.073
1554.6000, -38.205
1554.7000, -38.194
1554.8000, -38.179
1554.9000, -38.312
1555.0000, -38.237
1555.1000, -38.335
1555.2000, -38.345
1555.3000, -38.358
1555.4000, -38.374
1555.5000, -38.315
1555.6000, -38.334
1555.7000, -38.534
1555.8000, -38.561
1555.9000, -38.387
1556.0000, -38.503
1556.1000, -38.612
1556.2000, -38.561
1556.3000, -38.748
1556.4000, -38.577
1556.5000, -38.588
1556.6000, -38.646
1556.7000, -38.762
1556.8000, -38.632
1556.9000, -38.799
1557.0000, -38.876
1557.1000, -38.816
1557.2000, -38.864
1557.3000, -38.727
1557.4000, -38.893
1557.5000, -38.961
1557.6000, -39.014
1557.7000, -38.938
1557.8000, -38.898
1557.9000, -38.936
1558.0000, -39.024
1558.1000, -39.073
1558.2000, -39.077
1558.3000, -39.186
1558.4000, -39.180
1558.5000, -39.006
1558.6000, -39.209
1558.7000, -39.216
1558.8000, -39.072
1558.9000, -39.080
1559.0000, -39.099
1559.1000, -39.299
1559.2000, -39.116
1559.3000, -39.208
1559.4000, -39.185
1559.5000, -39.213
1559.6000, -39.410
1559.7000, -39.373
1559.8000, -39.336
1559.9000, -39.357
1560.0000, -39.365
1560.1000, -39.509
1560.2000, -39.579
1560.3000, -39.235
1560.4000, -39.298
1560.5000, -39.458
1560.6000, -39.389
1560.7000, -39.530
1560.8000, -39.530
1560.9000, -39.541
1561.0000, -39.533
1561.1000, -39.479
1561.2000, -39.525
1561.3000, -39.535
1561.4000, -39.729
1561.5000, -39.956
1561.6000, -39.799
1561.7000, -39.719
1561.8000, -39.770
1561.9000, -39.769
1562.0000, -39.774
1562.1000, -39.881
1562.2000, -39.856
1562.3000, -39.792
1562.4000, -39.877
1562.5000, -39.887
1562.6000, -39.852
1562.7000, -40.002
1562.8000, -39.962
1562.9000, -39.988
1563.0000, -40.015
1563.1000, -40.043
1563.2000, -40.158
1563.3000, -39.987
1563.4000, -39.997
1563.5000, -40.110
1563.6000, -40.153
1563.7000, -40.160
1563.8000, -40.194
1563.9000, -40.296
1564.0000, -40.193
1564.1000, -40.202
1564.2000, -40.226
1564.3000, -40.188
1564.4000, -40.249
1564.5000, -40.254
1564.6000, -40.427
1564.7000, -40.251
1564.8000, -40.439
1564.9000, -40.581
1565.0000, -40.495
1565.1000, -40.458
1565.2000, -40.377
1565.3000, -40.477
1565.4000, -40.536
1565.5000, -40.507
1565.6000, -40.589
1565.7000, -40.462
1565.8000, -40.656
1565.9000, -40.584
1566.0000, -40.433
1566.1000, -40.470
1566.2000, -40.480
1566.3000, -40.468
1566.4000, -40.527
1566.5000, -40.596
1566.6000, -40.678
1566.7000, -40.516
1566.8000, -40.510
1566.9000, -40.644
1567.0000, -40.411
1567.1000, -40.605
1567.2000, -40.597
1567.3000, -40.511
1567.4000, -40.835
1567.5000, -40.691
1567.6000, -40.535
1567.7000, -40.673
1567.8000, -40.610
1567.9000, -40.498
1568.0000, -40.546
1568.1000, -40.491
1568.2000, -40.706
1568.3000, -40.611
1568.4000, -40.622
1568.5000, -40.558
1568.6000, -40.557
1568.7000, -40.499
1568.8000, -40.634
1568.9000, -40.633
1569.0000, -40.635
1569.1000, -40.531
1569.2000, -40.573
1569.3000, -40.584
1569.4000, -40.608
1569.5000, -40.712
1569.6000, -40.351
1569.7000, -40.575
1569.8000, -40.491
1569.9000, -40.570
1570.0000, -40.434
1570.1000, -40.685
1570.2000, -40.456
1570.3000, -40.487
1570.4000, -40.541
1570.5000, -40.570
1570.6000, -40.467
1570.7000, -40.394
1570.8000, -40.413
1570.9000, -40.310
1571.0000, -40.402
1571.1000, -40.476
1571.2000, -40.445
1571.3000, -40.488
1571.4000, -40.403
1571.5000, -40.412
1571.6000, -40.528
1571.7000, -40.360
1571.8000, -40.380
1571.9000, -40.446
1572.0000, -40.307
1572.1000, -40.256
1572.2000, -40.223
1572.3000, -40.364
1572.4000, -40.261
1572.5000, -40.363
1572.6000, -40.278
1572.7000, -40.196
1572.8000, -40.390
1572.9000, -40.220
1573.0000, -40.173
1573.1000, -40.299
1573.2000, -40.063
1573.3000, -40.194
1573.4000, -40.168
1573.5000, -40.227
1573.6000, -40.130
1573.7000, -40.058
1573.8000, -40.090
1573.9000, -39.897
1574.0000, -40.119
1574.1000, -40.124
1574.2000, -40.061
1574.3000, -39.899
1574.4000, -40.191
1574.5000, -40.200
1574.6000, -39.959
1574.7000, -39.919
1574.8000, -39.969
1574.9000, -39.916
1575.0000, -39.623
1575.1000, -39.942
1575.2000, -39.913
1575.3000, -39.829
1575.4000, -39.715
1575.5000, -39.780
1575.6000, -39.830
1575.7000, -39.880
1575.8000, -39.784
1575.9000, -39.857
1576.0000, -39.696
1576.1000, -39.890
1576.2000, -39.777
1576.3000, -39.680
1576.4000, -39.654
1576.5000, -39.748
1576.6000, -39.645
1576.7000, -39.697
1576.8000, -39.737
1576.9000, -39.683
1577.0000, -39.616
1577.1000, -39.584
1577.2000, -39.624
1577.3000, -39.532
1577.4000, -39.607
1577.5000, -39.703
1577.6000, -39.639
1577.7000, -39.751
1577.8000, -39.728
1577.9000, -39.625
1578.0000, -39.702
1578.1000, -39.671
1578.2000, -39.634
1578.3000, -39.713
1578.4000, -39.659
1578.5000, -39.653
1578.6000, -39.631
1578.7000, -39.638
1578.8000, -39.750
1578.9000, -39.753
1579.0000, -39.669
1579.1000, -39.569
1579.2000, -39.603
1579.3000, -39.572
1579.4000, -39.568
1579.5000, -39.508
1579.6000, -39.605
1579.7000, -39.560
1579.8000, -39.563
1579.9000, -39.606
1580.0000, -39.638
1580.1000, -39.553
1580.2000, -39.720
1580.3000, -39.648
1580.4000, -39.698
1580.5000, -39.709
1580.6000, -39.655
1580.7000, -39.503
1580.8000, -39.621
1580.9000, -39.830
1581.0000, -39.645
1581.1000, -39.454
1581.2000, -39.746
1581.3000, -39.699
1581.4000, -39.815
1581.5000, -39.707
1581.6000, -39.584
1581.7000, -39.649
1581.8000, -39.664
1581.9000, -39.657
1582.0000, -39.848
1582.1000, -39.935
1582.2000, -39.566
1582.3000, -39.746
1582.4000, -39.706
1582.5000, -39.790
1582.6000, -39.804
1582.7000, -39.742
1582.8000, -39.730
1582.9000, -39.842
1583.0000, -39.618
1583.1000, -39.720
1583.2000, -39.743
1583.3000, -39.879
1583.4000, -39.714
1583.5000, -39.948
1583.6000, -39.865
1583.7000, -39.788
1583.8000, -39.890
1583.9000, -39.804
1584.0000, -39.865
1584.1000, -39.898
1584.2000, -39.719
1584.3000, -39.750
1584.4000, -39.837
1584.5000, -39.815
1584.6000, -39.836
1584.7000, -39.897
1584.8000, -39.848
1584.9000, -39.748
1585.0000, -39.780
1585.1000, -39.643
1585.2000, -39.552
1585.3000, -39.782
1585.4000, -39.951
1585.5000, -39.737
1585.6000, -39.847
1585.7000, -39.879
1585.8000, -39.840
1585.9000, -39.716
1586.0000, -39.764
1586.1000, -39.799
1586.2000, -39.810
1586.3000, -39.949
1586.4000, -39.816
1586.5000, -39.931
1586.6000, -39.889
1586.7000, -39.858
1586.8000, -39.801
1586.9000, -39.762
1587.0000, -39.950
1587.1000, -39.868
1587.2000, -39.863
1587.3000, -39.774
1587.4000, -39.802
1587.5000, -39.795
1587.6000, -39.916
1587.7000, -39.932
1587.8000, -39.823
1587.9000, -39.908
1588.0000, -39.916
1588.1000, -39.843
1588.2000, -39.874
1588.3000, -39.751
1588.4000, -39.828
1588.5000, -39.915
1588.6000, -39.814
1588.7000, -39.889
1588.8000, -40.050
1588.9000, -39.830
1589.0000, -39.806
1589.1000, -39.735
1589.2000, -39.852
1589.3000, -39.911
1589.4000, -40.095
1589.5000, -40.027
1589.6000, -39.936
1589.7000, -39.951
1589.8000, -39.904
1589.9000, -39.897
1590.0000, -39.881
1590.1000, -39.914
1590.2000, -39.875
1590.3000, -40.116
1590.4000, -40.019
1590.5000, -39.989
1590.6000, -40.148
1590.7000, -40.141
1590.8000, -40.026
1590.9000, -39.858
1591.0000, -40.044
1591.1000, -40.075
1591.2000, -40.263
1591.3000, -40.171
1591.4000, -40.153
1591.5000, -40.287
1591.6000, -40.087
1591.7000, -40.216
1591.8000, -40.217
1591.9000, -40.252
1592.0000, -40.154
1592.1000, -40.206
1592.2000, -40.391
1592.3000, -40.253
1592.4000, -40.356
1592.5000, -40.448
1592.6000, -40.313
1592.7000, -40.424
1592.8000, -40.459
1592.9000, -40.100
1593.0000, -40.242
1593.1000, -40.327
1593.2000, -40.395
1593.3000, -40.411
1593.4000, -40.442
1593.5000, -40.490
1593.6000, -40.509
1593.7000, -40.413
1593.8000, -40.635
1593.9000, -40.515
1594.0000, -40.543
1594.1000, -40.537
1594.2000, -40.589
1594.3000, -40.552
1594.4000, -40.720
1594.5000, -40.606
1594.6000, -40.691
1594.7000, -40.628
1594.8000, -40.685
1594.9000, -40.621
1595.0000, -40.715
1595.1000, -40.725
1595.2000, -40.854
1595.3000, -40.759
1595.4000, -40.849
1595.5000, -40.817
1595.6000, -40.862
1595.7000, -40.873
1595.8000, -40.916
1595.9000, -40.912
1596.0000, -41.063
1596.1000, -40.881
1596.2000, -40.885
1596.3000, -41.136
1596.4000, -41.006
1596.5000, -41.027
1596.6000, -40.978
1596.7000, -41.038
1596.8000, -41.116
1596.9000, -41.100
1597.0000, -41.158
1597.1000, -41.185
1597.2000, -41.305
1597.3000, -41.158
1597.4000, -41.144
1597.5000, -41.122
1597.6000, -41.194
1597.7000, -41.140
1597.8000, -41.295
1597.9000, -41.448
1598.0000, -41.389
1598.1000, -41.523
1598.2000, -41.552
1598.3000, -41.448
1598.4000, -41.472
1598.5000, -41.483
1598.6000, -41.666
1598.7000, -41.603
1598.8000, -41.641
1598.9000, -41.661
1599.0000, -41.822
1599.1000, -41.865
1599.2000, -41.640
1599.3000, -41.676
1599.4000, -41.875
1599.5000, -41.821
1599.6000, -41.888
1599.7000, -41.793
1599.8000, -42.013
1599.9000, -41.899
1600.0000, -42.087
1600.1000, -42.039
1600.2000, -41.970
1600.3000, -42.094
1600.4000, -41.981
1600.5000, -42.174
1600.6000, -42.170
1600.7000, -42.231
1600.8000, -42.271
1600.9000, -42.206
1601.0000, -42.206
1601.1000, -42.384
1601.2000, -42.370
1601.3000, -42.465
1601.4000, -42.497
1601.5000, -42.625
1601.6000, -42.484
1601.7000, -42.462
1601.8000, -42.639
1601.9000, -42.704
1602.0000, -42.654
1602.1000, -42.539
1602.2000, -42.653
1602.3000, -42.802
1602.4000, -42.629
1602.5000, -42.807
1602.6000, -42.636
1602.7000, -42.955
1602.8000, -42.914
1602.9000, -43.053
1603.0000, -42.863
1603.1000, -42.835
1603.2000, -43.025
1603.3000, -42.980
1603.4000, -43.041
1603.5000, -43.147
1603.6000, -43.013
1603.7000, -43.124
1603.8000, -43.301
1603.9000, -43.124
1604.0000, -43.242
1604.1000, -43.415
1604.2000, -43.185
1604.3000, -43.259
1604.4000, -43.336
1604.5000, -43.373
1604.6000, -43.449
1604.7000, -43.417
1604.8000, -43.295
1604.9000, -43.304
1605.0000, -43.415
1605.1000, -43.545
1605.2000, -43.496
1605.3000, -43.530
1605.4000, -43.612
1605.5000, -43.454
1605.6000, -43.455
1605.7000, -43.532
1605.8000, -43.730
1605.9000, -43.599
1606.0000, -43.644
1606.1000, -43.859
1606.2000, -43.763
1606.3000, -43.733
1606.4000, -43.877
1606.5000, -43.806
1606.6000, -43.819
1606.7000, -43.860
1606.8000, -43.854
1606.9000, -43.884
1607.0000, -43.881
1607.1000, -43.952
1607.2000, -44.143
1607.3000, -44.028
1607.4000, -44.035
1607.5000, -44.106
1607.6000, -44.062
1607.7000, -44.086
1607.8000, -44.126
1607.9000, -44.199
1608.0000, -44.286
1608.1000, -44.316
1608.2000, -44.324
1608.3000, -44.282
1608.4000, -44.315
1608.5000, -44.323
1608.6000, -44.528
1608.7000, -44.241
1608.8000, -44.391
1608.9000, -44.392
1609.0000, -44.509
1609.1000, -44.407
1609.2000, -44.414
1609.3000, -44.576
1609.4000, -44.583
1609.5000, -44.629
1609.6000, -44.605
1609.7000, -44.588
1609.8000, -44.704
1609.9000, -44.694
1610.0000, -44.888
1610.1000, -44.763
1610.2000, -44.833
1610.3000, -44.758
1610.4000, -44.876
1610.5000, -45.053
1610.6000, -44.979
1610.7000, -44.946
1610.8000, -44.913
1610.9000, -44.981
1611.0000, -44.711
1611.1000, -45.013
1611.2000, -44.816
1611.3000, -44.764
1611.4000, -44.774
1611.5000, -44.813
1611.6000, -44.750
1611.7000, -44.678
1611.8000, -44.797
1611.9000, -44.814
1612.0000, -45.018
1612.1000, -44.760
1612.2000, -44.740
1612.3000, -44.847
1612.4000, -44.786
1612.5000, -44.593
1612.6000, -44.675
1612.7000, -44.518
1612.8000, -44.646
1612.9000, -44.760
1613.0000, -44.483
1613.1000, -44.583
1613.2000, -44.424
1613.3000, -44.650
1613.4000, -44.658
1613.5000, -44.508
1613.6000, -44.479
1613.7000, -44.421
1613.8000, -44.382
1613.9000, -44.436
1614.0000, -44.433
1614.1000, -44.256
1614.2000, -44.338
1614.3000, -44.271
1614.4000, -44.123
1614.5000, -44.299
1614.6000, -44.198
1614.7000, -44.273
1614.8000, -44.428
1614.9000, -44.289
1615.0000, -44.210
1615.1000, -44.194
1615.2000, -44.207
1615.3000, -44.249
1615.4000, -44.316
1615.5000, -44.086
1615.6000, -44.270
1615.7000, -44.387
1615.8000, -44.227
1615.9000, -44.148
1616.0000, -44.135
1616.1000, -44.248
1616.2000, -43.918
1616.3000, -43.971
1616.4000, -44.082
1616.5000, -44.072
1616.6000, -44.067
1616.7000, -44.059
1616.8000, -44.203
1616.9000, -44.185
1617.0000, -44.087
1617.1000, -44.084
1617.2000, -44.278
1617.3000, -44.115
1617.4000, -43.926
1617.5000, -44.054
1617.6000, -44.012
1617.7000, -44.029
1617.8000, -43.975
1617.9000, -44.033
1618.0000, -44.151
1618.1000, -43.980
1618.2000, -44.010
1618.3000, -44.159
1618.4000, -44.054
1618.5000, -44.159
1618.6000, -44.185
1618.7000, -43.982
1618.8000, -44.024
1618.9000, -43.990
1619.0000, -43.886
1619.1000, -44.141
1619.2000, -44.116
1619.3000, -44.183
1619.4000, -44.122
1619.5000, -44.081
1619.6000, -43.965
1619.7000, -43.913
1619.8000, -43.974
1619.9000, -43.961
1620.0000, -44.010
1620.1000, -44.098
1620.2000, -43.918
1620.3000, -43.976
1620.4000, -44.122
1620.5000, -43.952
1620.6000, -43.987
1620.7000, -43.851
1620.8000, -43.966
1620.9000, -44.093
1621.0000, -44.119
1621.1000, -43.910
1621.2000, -43.976
1621.3000, -43.784
1621.4000, -44.099
1621.5000, -44.078
1621.6000, -43.998
1621.7000, -44.042
1621.8000, -44.081
1621.9000, -44.001
1622.0000, -43.969
1622.1000, -44.137
1622.2000, -43.990
1622.3000, -43.929
1622.4000, -44.171
1622.5000, -44.114
1622.6000, -44.038
1622.7000, -44.163
1622.8000, -43.928
1622.9000, -44.028
1623.0000, -44.209
1623.1000, -44.263
1623.2000, -43.979
1623.3000, -44.205
1623.4000, -43.988
1623.5000, -44.124
1623.6000, -44.284
1623.7000, -44.107
1623.8000, -44.321
1623.9000, -44.101
1624.0000, -44.079
1624.1000, -44.177
1624.2000, -44.174
1624.3000, -44.324
1624.4000, -44.151
1624.5000, -44.286
1624.6000, -44.268
1624.7000, -44.304
1624.8000, -44.471
1624.9000, -44.285
1625.0000, -44.486
1625.1000, -44.247
1625.2000, -44.393
1625.3000, -44.511
1625.4000, -44.497
1625.5000, -44.348
1625.6000, -44.214
1625.7000, -44.419
1625.8000, -44.681
1625.9000, -44.463
1626.0000, -44.770
1626.1000, -44.620
1626.2000, -44.688
1626.3000, -44.649
1626.4000, -44.713
1626.5000, -44.645
1626.6000, -44.737
1626.7000, -44.973
1626.8000, -44.721
1626.9000, -44.875
1627.0000, -44.824
1627.1000, -44.942
1627.2000, -44.904
1627.3000, -45.018
1627.4000, -45.169
1627.5000, -44.930
1627.6000, -44.818
1627.7000, -45.143
1627.8000, -44.990
1627.9000, -45.305
1628.0000, -45.142
1628.1000, -45.230
1628.2000, -45.289
1628.3000, -45.297
1628.4000, -45.192
1628.5000, -45.297
1628.6000, -45.152
1628.7000, -45.249
1628.8000, -45.141
1628.9000, -45.079
1629.0000, -45.124
1629.1000, -45.153
1629.2000, -45.189
1629.3000, -45.434
1629.4000, -45.067
1629.5000, -45.150
1629.6000, -45.320
1629.7000, -45.374
1629.8000, -45.407
1629.9000, -45.244
1630.0000, -45.255
1630.1000, -45.420
1630.2000, -45.582
1630.3000, -45.579
1630.4000, -45.570
1630.5000, -45.579
1630.6000, -45.918
1630.7000, -45.622
1630.8000, -45.769
1630.9000, -45.927
1631.0000, -45.756
1631.1000, -45.604
1631.2000, -45.697
1631.3000, -45.607
1631.4000, -45.636
1631.5000, -45.673
1631.6000, -45.684
1631.7000, -45.719
1631.8000, -45.476
1631.9000, -45.385
1632.0000, -45.451
1632.1000, -45.622
1632.2000, -45.707
1632.3000, -45.607
1632.4000, -45.601
1632.5000, -45.600
1632.6000, -45.647
1632.7000, -45.473
1632.8000, -45.386
1632.9000, -45.573
1633.0000, -45.484
1633.1000, -45.445
1633.2000, -45.538
1633.3000, -45.521
1633.4000, -45.493
1633.5000, -45.501
1633.6000, -45.444
1633.7000, -45.532
1633.8000, -45.573
1633.9000, -45.707
1634.0000, -45.524
1634.1000, -45.497
1634.2000, -45.504
1634.3000, -45.451
1634.4000, -45.452
1634.5000, -45.446
1634.6000, -45.649
1634.7000, -45.515
1634.8000, -45.494
1634.9000, -45.454
1635.0000, -45.538
1635.1000, -45.507
1635.2000, -45.480
1635.3000, -45.649
1635.4000, -45.618
1635.5000, -45.455
1635.6000, -45.679
1635.7000, -45.742
1635.8000, -45.649
1635.9000, -45.647
1636.0000, -45.631
1636.1000, -45.639
1636.2000, -45.612
1636.3000, -45.766
1636.4000, -45.609
1636.5000, -45.645
1636.6000, -45.551
1636.7000, -45.439
1636.8000, -45.702
1636.9000, -45.689
1637.0000, -45.814
1637.1000, -45.800
1637.2000, -45.653
1637.3000, -45.754
1637.4000, -45.788
1637.5000, -45.978
1637.6000, -45.917
1637.7000, -45.860
1637.8000, -45.669
1637.9000, -45.747
1638.0000, -46.016
1638.1000, -46.131
1638.2000, -45.959
1638.3000, -46.078
1638.4000, -45.946
1638.5000, -46.035
1638.6000, -46.296
1638.7000, -46.215
1638.8000, -46.104
1638.9000, -46.210
1639.0000, -46.238
1639.1000, -46.257
1639.2000, -46.132
1639.3000, -46.385
1639.4000, -46.364
1639.5000, -46.254
1639.6000, -46.410
1639.7000, -46.462
1639.8000, -46.357
1639.9000, -46.287
1640.0000, -46.462
1640.1000, -46.568
1640.2000, -46.547
1640.3000, -46.560
1640.4000, -46.566
1640.5000, -46.620
1640.6000, -46.625
1640.7000, -46.583
1640.8000, -46.737
1640.9000, -46.678
1641.0000, -46.646
1641.1000, -46.766
1641.2000, -46.941
1641.3000, -46.862
1641.4000, -46.907
1641.5000, -46.926
1641.6000, -46.945
1641.7000, -47.153
1641.8000, -46.950
1641.9000, -47.200
1642.0000, -47.002
1642.1000, -47.066
1642.2000, -47.015
1642.3000, -47.114
1642.4000, -47.239
1642.5000, -47.199
1642.6000, -47.278
1642.7000, -47.471
1642.8000, -47.571
1642.9000, -47.329
1643.0000, -47.422
1643.1000, -47.474
1643.2000, -47.455
1643.3000, -47.451
1643.4000, -47.527
1643.5000, -47.804
1643.6000, -47.543
1643.7000, -47.715
1643.8000, -47.779
1643.9000, -47.642
1644.0000, -47.712
1644.1000, -47.746
1644.2000, -47.729
1644.3000, -47.966
1644.4000, -47.863
1644.5000, -48.015
1644.6000, -47.891
1644.7000, -48.007
1644.8000, -47.986
1644.9000, -48.114
1645.0000, -47.882
1645.1000, -47.997
1645.2000, -48.129
1645.3000, -48.311
1645.4000, -47.992
1645.5000, -48.094
1645.6000, -48.099
1645.7000, -48.025
1645.8000, -48.245
1645.9000, -48.353
1646.0000, -48.237
1646.1000, -48.363
1646.2000, -48.300
1646.3000, -48.564
1646.4000, -48.292
1646.5000, -48.523
1646.6000, -48.451
1646.7000, -48.260
1646.8000, -48.522
1646.9000, -48.446
1647.0000, -48.400
1647.1000, -48.494
1647.2000, -48.683
1647.3000, -48.607
1647.4000, -48.589
1647.5000, -48.751
1647.6000, -48.690
1647.7000, -48.749
1647.8000, -48.699
1647.9000, -48.760
1648.0000, -48.883
1648.1000, -48.775
1648.2000, -48.852
1648.3000, -48.992
1648.4000, -48.810
1648.5000, -48.887
1648.6000, -48.914
1648.7000, -48.895
1648.8000, -48.913
1648.9000, -49.051
1649.0000, -49.092
1649.1000, -49.134
1649.2000, -49.031
1649.3000, -48.968
1649.4000, -48.989
1649.5000, -49.033
1649.6000, -49.127
1649.7000, -49.015
1649.8000, -49.189
1649.9000, -49.319
1650.0000, -49.151
1650.1000, -49.087
1650.2000, -49.190
1650.3000, -49.156
1650.4000, -49.160
1650.5000, -49.322
1650.6000, -49.252
1650.7000, -49.323
1650.8000, -49.283
1650.9000, -49.352
1651.0000, -49.285
1651.1000, -49.349
1651.2000, -49.451
1651.3000, -49.400
1651.4000, -49.350
1651.5000, -49.489
1651.6000, -49.312
1651.7000, -49.444
1651.8000, -49.650
1651.9000, -49.430
1652.0000, -49.464
1652.1000, -49.674
1652.2000, -49.370
1652.3000, -49.733
1652.4000, -49.574
1652.5000, -49.476
1652.6000, -49.420
1652.7000, -49.778
1652.8000, -49.467
1652.9000, -49.607
1653.0000, -49.501
1653.1000, -49.490
1653.2000, -49.380
1653.3000, -49.576
1653.4000, -49.509
1653.5000, -49.479
1653.6000, -49.552
1653.7000, -49.538
1653.8000, -49.540
1653.9000, -49.659
1654.0000, -49.448
1654.1000, -49.647
1654.2000, -49.594
1654.3000, -49.657
1654.4000, -49.585
1654.5000, -49.572
1654.6000, -49.531
1654.7000, -49.498
1654.8000, -49.610
1654.9000, -49.540
1655.0000, -49.762
1655.1000, -49.616
1655.2000, -49.510
1655.3000, -49.658
1655.4000, -49.643
1655.5000, -49.737
1655.6000, -49.497
1655.7000, -49.616
1655.8000, -49.506
1655.9000, -49.643
1656.0000, -49.680
1656.1000, -49.371
1656.2000, -49.677
1656.3000, -49.372
1656.4000, -49.602
1656.5000, -49.508
1656.6000, -49.630
1656.7000, -49.575
1656.8000, -49.571
1656.9000, -49.569
1657.0000, -49.613
1657.1000, -49.380
1657.2000, -49.530
1657.3000, -49.434
1657.4000, -49.708
1657.5000, -49.591
1657.6000, -49.570
1657.7000, -49.586
1657.8000, -49.605
1657.9000, -49.509
1658.0000, -49.680
1658.1000, -49.583
1658.2000, -49.667
1658.3000, -49.397
1658.4000, -49.669
1658.5000, -49.603
1658.6000, -49.605
1658.7000, -49.731
1658.8000, -49.757
1658.9000, -49.672
1659.0000, -49.808
1659.1000, -49.643
1659.2000, -49.668
1659.3000, -49.580
1659.4000, -49.940
1659.5000, -49.819
1659.6000, -49.852
1659.7000, -49.695
1659.8000, -49.711
1659.9000, -49.662
1660.0000, -49.719
1660.1000, -49.837
1660.2000, -49.670
1660.3000, -49.490
1660.4000, -49.760
1660.5000, -49.717
1660.6000, -49.832
1660.7000, -49.795
1660.8000, -49.874
1660.9000, -49.674
1661.0000, -49.628
1661.1000, -49.629
1661.2000, -49.814
1661.3000, -49.771
1661.4000, -49.823
1661.5000, -49.782
1661.6000, -49.736
1661.7000, -49.628
1661.8000, -49.578
1661.9000, -49.761
1662.0000, -49.565
1662.1000, -49.515
1662.2000, -49.633
1662.3000, -49.568
1662.4000, -49.931
1662.5000, -49.518
1662.6000, -49.698
1662.7000, -49.740
1662.8000, -49.779
1662.9000, -49.514
1663.0000, -49.491
1663.1000, -49.643
1663.2000, -49.590
1663.3000, -49.647
1663.4000, -49.678
1663.5000, -49.485
1663.6000, -49.554
1663.7000, -49.682
1663.8000, -49.538
1663.9000, -49.653
1664.0000, -49.592
1664.1000, -49.616
1664.2000, -49.422
1664.3000, -49.522
1664.4000, -49.641
1664.5000, -49.654
1664.6000, -49.580
1664.7000, -49.470
1664.8000, -49.585
1664.9000, -49.497
1665.0000, -49.176
1665.1000, -49.366
1665.2000, -49.494
1665.3000, -49.390
1665.4000, -49.527
1665.5000, -49.445
1665.6000, -49.433
1665.7000, -49.465
1665.8000, -49.556
1665.9000, -49.590
1666.0000, -49.511
1666.1000, -49.645
1666.2000, -49.559
1666.3000, -49.482
1666.4000, -49.638
1666.5000, -49.507
1666.6000, -49.473
1666.7000, -49.414
1666.8000, -49.545
1666.9000, -49.529
1667.0000, -49.406
1667.1000, -49.572
1667.2000, -49.560
1667.3000, -49.682
1667.4000, -49.534
1667.5000, -49.557
1667.6000, -49.638
1667.7000, -49.663
1667.8000, -49.640
1667.9000, -49.707
1668.0000, -49.583
1668.1000, -49.540
1668.2000, -49.381
1668.3000, -49.475
1668.4000, -49.731
1668.5000, -49.672
1668.6000, -49.607
1668.7000, -49.775
1668.8000, -49.513
1668.9000, -49.661
1669.0000, -49.601
1669.1000, -49.624
1669.2000, -49.663
1669.3000, -49.770
1669.4000, -49.681
1669.5000, -49.656
1669.6000, -49.620
1669.7000, -49.720
1669.8000, -49.812
1669.9000, -49.633
1670.0000, -49.835
1670.1000, -49.757
1670.2000, -49.889
1670.3000, -49.799
1670.4000, -49.704
1670.5000, -49.854
1670.6000, -50.026
1670.7000, -50.029
1670.8000, -49.739
1670.9000, -49.751
1671.0000, -49.806
1671.1000, -50.091
1671.2000, -49.921
1671.3000, -50.042
1671.4000, -49.633
1671.5000, -49.928
1671.6000, -50.024
1671.7000, -49.968
1671.8000, -49.994
1671.9000, -50.124
1672.0000, -50.095
1672.1000, -50.101
1672.2000, -50.145
1672.3000, -49.915
1672.4000, -50.018
1672.5000, -50.041
1672.6000, -50.181
1672.7000, -50.104
1672.8000, -50.241
1672.9000, -50.233
1673.0000, -50.038
1673.1000, -50.430
1673.2000, -49.970
1673.3000, -50.131
1673.4000, -50.094
1673.5000, -50.266
1673.6000, -50.337
1673.7000, -50.256
1673.8000, -50.312
1673.9000, -50.371
1674.0000, -50.196
1674.1000, -50.319
1674.2000, -50.400
1674.3000, -50.165
1674.4000, -49.910
1674.5000, -50.132
1674.6000, -50.555
1674.7000, -50.552
1674.8000, -50.735
1674.9000, -50.656
1675.0000, -50.951
1675.1000, -50.862
1675.2000, -50.748
1675.3000, -50.766
1675.4000, -50.753
1675.5000, -50.943
1675.6000, -50.998
1675.7000, -50.866
1675.8000, -50.980
1675.9000, -51.080
1676.0000, -51.138
1676.1000, -51.180
1676.2000, -51.052
1676.3000, -51.168
1676.4000, -51.251
1676.5000, -51.205
1676.6000, -51.206
1676.7000, -51.335
1676.8000, -51.346
1676.9000, -51.441
1677.0000, -51.461
1677.1000, -51.474
1677.2000, -51.390
1677.3000, -51.604
1677.4000, -51.741
1677.5000, -51.576
1677.6000, -51.704
1677.7000, -51.643
1677.8000, -51.764
1677.9000, -51.638
1678.0000, -51.641
1678.1000, -51.674
1678.2000, -51.639
1678.3000, -52.024
1678.4000, -51.767
1678.5000, -51.866
1678.6000, -51.909
1678.7000, -52.022
1678.8000, -51.858
1678.9000, -51.994
1679.0000, -52.054
1679.1000, -52.164
1679.2000, -52.066
1679.3000, -52.060
1679.4000, -52.046
1679.5000, -52.076
1679.6000, -52.131
1679.7000, -52.151
1679.8000, -52.185
1679.9000, -52.077
1680.0000, -52.417
1680.1000, -52.242
1680.2000, -52.271
1680.3000, -52.347
1680.4000, -52.408
1680.5000, -52.299
1680.6000, -52.271
1680.7000, -52.419
1680.8000, -52.301
1680.9000, -52.196
1681.0000, -52.566
1681.1000, -52.234
1681.2000, -52.528
1681.3000, -52.351
1681.4000, -52.601
1681.5000, -52.650
1681.6000, -52.497
1681.7000, -52.540
1681.8000, -52.421
1681.9000, -52.501
1682.0000, -52.427
1682.1000, -52.540
1682.2000, -52.467
1682.3000, -52.481
1682.4000, -52.436
1682.5000, -52.667
1682.6000, -52.617
1682.7000, -52.740
1682.8000, -52.711
1682.9000, -52.577
1683.0000, -52.418
1683.1000, -52.536
1683.2000, -52.624
1683.3000, -52.629
1683.4000, -52.731
1683.5000, -52.798
1683.6000, -52.450
1683.7000, -52.947
1683.8000, -52.881
1683.9000, -52.696
1684.0000, -52.726
1684.1000, -52.648
1684.2000, -52.612
1684.3000, -52.631
1684.4000, -52.824
1684.5000, -52.612
1684.6000, -52.924
1684.7000, -52.890
1684.8000, -52.651
1684.9000, -52.740
1685.0000, -52.628
1685.1000, -52.790
1685.2000, -52.841
1685.3000, -52.724
1685.4000, -52.898
1685.5000, -52.858
1685.6000, -52.751
1685.7000, -53.119
1685.8000, -52.690
1685.9000, -52.881
1686.0000, -52.966
1686.1000, -52.780
1686.2000, -53.045
1686.3000, -52.897
1686.4000, -52.984
1686.5000, -52.989
1686.6000, -52.847
1686.7000, -52.889
1686.8000, -52.973
1686.9000, -52.801
1687.0000, -53.037
1687.1000, -53.010
1687.2000, -52.993
1687.3000, -53.114
1687.4000, -53.240
1687.5000, -53.090
1687.6000, -53.135
1687.7000, -53.233
1687.8000, -53.078
1687.9000, -53.045
1688.0000, -53.256
1688.1000, -53.175
1688.2000, -53.082
1688.3000, -53.263
1688.4000, -53.309
1688.5000, -53.066
1688.6000, -53.210
1688.7000, -53.120
1688.8000, -53.378
1688.9000, -53.237
1689.0000, -53.411
1689.1000, -53.403
1689.2000, -53.362
1689.3000, -53.489
1689.4000, -53.342
1689.5000, -53.399
1689.6000, -53.376
1689.7000, -53.523
1689.8000, -53.349
1689.9000, -53.513
1690.0000, -53.259
1690.1000, -53.657
1690.2000, -53.269
1690.3000, -53.201
1690.4000, -53.926
1690.5000, -53.619
1690.6000, -53.390
1690.7000, -53.652
1690.8000, -53.391
1690.9000, -53.614
1691.0000, -53.604
1691.1000, -53.506
1691.2000, -53.814
1691.3000, -53.738
1691.4000, -53.495
1691.5000, -53.648
1691.6000, -53.900
1691.7000, -53.830
1691.8000, -53.969
1691.9000, -53.446
1692.0000, -53.627
1692.1000, -54.186
1692.2000, -53.987
1692.3000, -53.865
1692.4000, -54.132
1692.5000, -53.819
1692.6000, -54.299
1692.7000, -53.868
1692.8000, -54.339
1692.9000, -54.142
1693.0000, -53.980
1693.1000, -54.233
1693.2000, -54.345
1693.3000, -54.351
1693.4000, -54.128
1693.5000, -54.505
1693.6000, -54.119
1693.7000, -54.400
1693.8000, -54.355
1693.9000, -54.324
1694.0000, -54.465
1694.1000, -54.468
1694.2000, -54.578
1694.3000, -54.412
1694.4000, -54.558
1694.5000, -54.532
1694.6000, -54.635
1694.7000, -54.650
1694.8000, -54.322
1694.9000, -54.894
1695.0000, -54.620
1695.1000, -54.424
1695.2000, -55.007
1695.3000, -54.382
1695.4000, -55.221
1695.5000, -54.379
1695.6000, -54.770
1695.7000, -54.791
1695.8000, -54.533
1695.9000, -54.670
1696.0000, -55.025
1696.1000, -54.743
1696.2000, -55.132
1696.3000, -54.677
1696.4000, -55.276
1696.5000, -54.766
1696.6000, -55.138
1696.7000, -54.776
1696.8000, -54.880
1696.9000, -54.501
1697.0000, -54.725
1697.1000, -55.028
1697.2000, -54.868
1697.3000, -54.995
1697.4000, -54.730
1697.5000, -55.069
1697.6000, -54.847
1697.7000, -55.324
1697.8000, -55.009
1697.9000, -54.659
1698.0000, -54.742
1698.1000, -55.434
1698.2000, -54.938
1698.3000, -55.302
1698.4000, -54.828
1698.5000, -55.209
1698.6000, -55.036
1698.7000, -54.785
1698.8000, -55.149
1698.9000, -55.080
1699.0000, -55.023
1699.1000, -55.083
1699.2000, -54.930
1699.3000, -55.202
1699.4000, -54.686
1699.5000, -54.525
1699.6000, -56.289
1699.7000, -54.759
1699.8000, -55.355
1699.9000, -55.631
1700.0000, -54.759
