70BCSV 	
// AQ6370B OPTICAL SPECTRUM ANALYZER //                 
25
"CTRWL",1300.000000
"SPAN", 800.000000
"START WL", 900.000000
"STOP WL",1700.000000
"WLFREQ", 0
"REFL",-17.2
"LSCL",10.0
"RESLN",0.500
"AVG",   1
"SMPLAUTO",      1
"SMPL",       8001
"SMPLINTVL",0.1000
"HIGH1"
"MEAS"
"LSUNT",0
"NMSKH","OFF"
"RESCOR",0
"RESPARM", 9740
"FREQPARM", 9740






"[TRACE DATA]"
 900.0000,-210.000
 900.1000,-210.000
 900.2000, -70.790
 900.3000, -80.184
 900.4000, -74.129
 900.5000,-210.000
 900.6000, -75.631
 900.7000, -71.968
 900.8000, -75.926
 900.9000, -73.984
 901.0000, -72.540
 901.1000, -69.616
 901.2000, -75.028
 901.3000,-210.000
 901.4000, -75.751
 901.5000, -77.883
 901.6000, -74.884
 901.7000, -83.832
 901.8000, -74.103
 901.9000, -74.945
 902.0000, -74.709
 902.1000, -74.570
 902.2000, -76.696
 902.3000, -75.087
 902.4000, -77.020
 902.5000, -72.114
 902.6000, -75.126
 902.7000, -80.028
 902.8000, -74.345
 902.9000, -73.670
 903.0000, -91.171
 903.1000, -78.956
 903.2000, -74.225
 903.3000, -73.053
 903.4000, -75.076
 903.5000, -77.329
 903.6000, -76.732
 903.7000, -74.825
 903.8000, -73.374
 903.9000, -72.298
 904.0000, -78.281
 904.1000, -85.372
 904.2000, -89.099
 904.3000,-210.000
 904.4000, -72.498
 904.5000, -78.245
 904.6000, -72.767
 904.7000, -73.685
 904.8000, -75.094
 904.9000,-210.000
 905.0000, -72.897
 905.1000, -72.964
 905.2000, -74.790
 905.3000, -76.283
 905.4000, -79.210
 905.5000, -92.772
 905.6000, -72.155
 905.7000,-210.000
 905.8000, -76.266
 905.9000, -81.764
 906.0000, -70.726
 906.1000, -75.009
 906.2000, -83.468
 906.3000, -73.670
 906.4000, -74.412
 906.5000,-210.000
 906.6000, -77.384
 906.7000, -71.670
 906.8000, -80.599
 906.9000, -75.142
 907.0000, -73.510
 907.1000, -98.829
 907.2000, -76.973
 907.3000,-210.000
 907.4000, -73.221
 907.5000, -73.123
 907.6000, -74.991
 907.7000, -88.837
 907.8000, -77.565
 907.9000, -75.267
 908.0000, -83.076
 908.1000, -70.241
 908.2000, -78.819
 908.3000, -85.268
 908.4000, -72.508
 908.5000,-210.000
 908.6000, -74.593
 908.7000, -74.729
 908.8000, -77.124
 908.9000, -81.898
 909.0000, -76.906
 909.1000, -76.353
 909.2000, -81.012
 909.3000, -73.763
 909.4000, -74.701
 909.5000, -74.815
 909.6000, -76.711
 909.7000, -76.050
 909.8000, -74.740
 909.9000, -90.590
 910.0000,-210.000
 910.1000, -82.933
 910.2000, -74.012
 910.3000, -73.046
 910.4000, -75.022
 910.5000, -74.464
 910.6000,-210.000
 910.7000, -79.628
 910.8000, -77.655
 910.9000, -82.064
 911.0000, -78.938
 911.1000, -77.407
 911.2000, -76.229
 911.3000,-210.000
 911.4000, -75.854
 911.5000, -78.817
 911.6000, -79.943
 911.7000, -73.638
 911.8000, -76.155
 911.9000, -76.508
 912.0000, -75.273
 912.1000, -80.484
 912.2000, -75.771
 912.3000, -81.998
 912.4000, -73.824
 912.5000, -79.131
 912.6000,-210.000
 912.7000, -74.135
 912.8000, -80.277
 912.9000, -85.419
 913.0000, -71.956
 913.1000, -75.257
 913.2000, -75.433
 913.3000,-210.000
 913.4000, -80.421
 913.5000, -72.472
 913.6000, -83.570
 913.7000, -76.353
 913.8000,-210.000
 913.9000, -73.901
 914.0000, -85.244
 914.1000, -75.560
 914.2000, -76.279
 914.3000,-210.000
 914.4000, -71.947
 914.5000, -80.353
 914.6000, -75.457
 914.7000, -75.064
 914.8000, -78.090
 914.9000, -76.511
 915.0000, -77.899
 915.1000, -79.376
 915.2000, -76.157
 915.3000,-210.000
 915.4000, -74.952
 915.5000, -75.961
 915.6000, -74.311
 915.7000, -78.654
 915.8000,-210.000
 915.9000, -74.204
 916.0000, -83.409
 916.1000, -74.547
 916.2000, -81.548
 916.3000, -81.234
 916.4000, -84.200
 916.5000, -86.341
 916.6000, -76.739
 916.7000, -82.344
 916.8000, -78.440
 916.9000, -76.160
 917.0000, -81.821
 917.1000, -83.894
 917.2000, -79.248
 917.3000, -73.924
 917.4000, -76.167
 917.5000,-210.000
 917.6000, -74.044
 917.7000,-210.000
 917.8000, -73.742
 917.9000, -75.279
 918.0000, -74.443
 918.1000, -85.218
 918.2000, -75.328
 918.3000,-210.000
 918.4000, -79.155
 918.5000, -75.851
 918.6000, -79.395
 918.7000,-210.000
 918.8000, -75.601
 918.9000,-210.000
 919.0000,-210.000
 919.1000, -77.932
 919.2000, -76.650
 919.3000, -74.461
 919.4000, -79.010
 919.5000, -76.872
 919.6000, -84.153
 919.7000,-210.000
 919.8000, -72.331
 919.9000, -76.593
 920.0000,-210.000
 920.1000,-210.000
 920.2000, -77.599
 920.3000,-210.000
 920.4000, -76.556
 920.5000, -75.917
 920.6000, -83.658
 920.7000, -77.607
 920.8000, -75.749
 920.9000, -78.735
 921.0000,-210.000
 921.1000, -79.018
 921.2000, -74.946
 921.3000, -76.071
 921.4000, -87.972
 921.5000, -78.221
 921.6000,-210.000
 921.7000, -74.945
 921.8000,-210.000
 921.9000,-210.000
 922.0000, -78.755
 922.1000, -74.271
 922.2000, -83.968
 922.3000,-210.000
 922.4000,-210.000
 922.5000, -86.526
 922.6000, -78.274
 922.7000, -74.402
 922.8000,-210.000
 922.9000, -76.269
 923.0000,-210.000
 923.1000, -77.392
 923.2000, -75.143
 923.3000, -79.956
 923.4000, -85.463
 923.5000, -76.766
 923.6000, -77.304
 923.7000,-210.000
 923.8000, -79.228
 923.9000, -77.689
 924.0000, -77.215
 924.1000, -86.593
 924.2000,-210.000
 924.3000, -77.120
 924.4000, -84.940
 924.5000,-210.000
 924.6000, -74.903
 924.7000,-210.000
 924.8000,-210.000
 924.9000, -73.807
 925.0000,-210.000
 925.1000, -80.837
 925.2000, -77.999
 925.3000, -73.060
 925.4000,-210.000
 925.5000,-210.000
 925.6000, -82.427
 925.7000, -80.320
 925.8000, -74.597
 925.9000,-210.000
 926.0000,-210.000
 926.1000,-210.000
 926.2000, -76.748
 926.3000, -78.167
 926.4000, -75.488
 926.5000, -79.815
 926.6000, -80.549
 926.7000,-210.000
 926.8000, -78.065
 926.9000, -78.407
 927.0000, -87.468
 927.1000, -80.044
 927.2000, -82.640
 927.3000, -76.972
 927.4000, -77.355
 927.5000, -81.425
 927.6000, -75.422
 927.7000,-210.000
 927.8000,-210.000
 927.9000, -76.523
 928.0000, -81.337
 928.1000, -77.654
 928.2000, -83.225
 928.3000, -88.070
 928.4000, -84.631
 928.5000, -77.666
 928.6000, -79.221
 928.7000, -80.584
 928.8000, -77.297
 928.9000, -84.211
 929.0000, -76.936
 929.1000, -76.707
 929.2000, -80.896
 929.3000, -94.442
 929.4000, -77.782
 929.5000, -87.647
 929.6000, -75.772
 929.7000,-210.000
 929.8000, -82.338
 929.9000, -82.139
 930.0000, -79.119
 930.1000, -85.139
 930.2000, -86.111
 930.3000,-210.000
 930.4000, -76.583
 930.5000, -76.252
 930.6000, -78.081
 930.7000, -89.933
 930.8000,-210.000
 930.9000, -78.401
 931.0000, -79.417
 931.1000, -83.488
 931.2000, -80.382
 931.3000, -80.148
 931.4000,-210.000
 931.5000, -77.559
 931.6000, -80.772
 931.7000, -78.124
 931.8000,-210.000
 931.9000, -86.240
 932.0000, -77.050
 932.1000,-210.000
 932.2000, -80.817
 932.3000, -87.330
 932.4000, -77.886
 932.5000, -77.511
 932.6000, -85.494
 932.7000, -79.707
 932.8000, -84.098
 932.9000, -79.200
 933.0000, -79.010
 933.1000, -79.570
 933.2000, -80.903
 933.3000,-210.000
 933.4000, -78.645
 933.5000, -80.052
 933.6000, -77.704
 933.7000,-210.000
 933.8000, -87.055
 933.9000, -79.821
 934.0000, -82.950
 934.1000, -79.280
 934.2000, -80.860
 934.3000, -77.959
 934.4000, -78.864
 934.5000,-210.000
 934.6000, -79.417
 934.7000, -78.964
 934.8000, -78.337
 934.9000, -82.527
 935.0000, -82.898
 935.1000, -85.317
 935.2000, -81.094
 935.3000, -80.333
 935.4000, -84.754
 935.5000, -74.448
 935.6000,-210.000
 935.7000, -76.141
 935.8000, -79.938
 935.9000, -83.421
 936.0000, -82.963
 936.1000, -84.477
 936.2000, -81.277
 936.3000, -79.727
 936.4000, -79.712
 936.5000,-210.000
 936.6000, -78.433
 936.7000, -77.107
 936.8000, -90.373
 936.9000, -81.967
 937.0000, -75.325
 937.1000, -87.605
 937.2000, -75.436
 937.3000, -78.089
 937.4000, -88.639
 937.5000, -79.361
 937.6000, -76.717
 937.7000,-105.112
 937.8000, -77.304
 937.9000,-210.000
 938.0000, -75.718
 938.1000, -80.237
 938.2000, -76.403
 938.3000, -76.350
 938.4000, -75.834
 938.5000, -77.086
 938.6000, -76.295
 938.7000, -74.348
 938.8000, -76.163
 938.9000, -75.289
 939.0000, -75.316
 939.1000, -75.277
 939.2000, -77.043
 939.3000, -76.622
 939.4000, -76.470
 939.5000, -91.034
 939.6000,-210.000
 939.7000, -77.840
 939.8000, -76.460
 939.9000,-210.000
 940.0000, -80.459
 940.1000, -79.100
 940.2000, -76.616
 940.3000, -78.246
 940.4000,-210.000
 940.5000,-210.000
 940.6000, -78.996
 940.7000, -75.761
 940.8000,-210.000
 940.9000, -77.936
 941.0000,-210.000
 941.1000, -81.442
 941.2000, -75.244
 941.3000,-210.000
 941.4000, -76.312
 941.5000, -76.514
 941.6000, -78.565
 941.7000,-210.000
 941.8000, -80.129
 941.9000, -74.596
 942.0000,-210.000
 942.1000, -82.892
 942.2000, -84.973
 942.3000,-210.000
 942.4000, -77.175
 942.5000, -82.180
 942.6000, -78.593
 942.7000, -83.526
 942.8000, -76.030
 942.9000, -79.999
 943.0000, -87.537
 943.1000, -79.145
 943.2000,-210.000
 943.3000,-210.000
 943.4000, -77.489
 943.5000,-210.000
 943.6000, -83.038
 943.7000, -77.053
 943.8000, -85.118
 943.9000, -80.741
 944.0000, -78.696
 944.1000, -78.410
 944.2000, -82.314
 944.3000, -79.004
 944.4000, -82.334
 944.5000, -76.635
 944.6000, -89.151
 944.7000, -78.009
 944.8000, -76.096
 944.9000, -85.521
 945.0000, -80.952
 945.1000, -74.929
 945.2000, -76.419
 945.3000, -79.817
 945.4000, -78.872
 945.5000, -73.689
 945.6000, -73.348
 945.7000, -75.043
 945.8000, -73.579
 945.9000, -72.762
 946.0000, -73.777
 946.1000, -72.758
 946.2000, -72.441
 946.3000, -72.538
 946.4000, -72.546
 946.5000, -72.866
 946.6000, -74.708
 946.7000, -74.337
 946.8000, -75.509
 946.9000, -75.308
 947.0000, -78.433
 947.1000, -76.230
 947.2000, -76.756
 947.3000, -79.306
 947.4000, -79.238
 947.5000, -80.712
 947.6000, -79.910
 947.7000, -80.389
 947.8000, -79.576
 947.9000, -79.495
 948.0000, -81.307
 948.1000, -79.202
 948.2000,-210.000
 948.3000, -77.885
 948.4000, -81.106
 948.5000, -86.139
 948.6000, -80.019
 948.7000, -79.635
 948.8000, -79.094
 948.9000, -86.680
 949.0000, -80.596
 949.1000, -80.758
 949.2000, -77.789
 949.3000, -83.596
 949.4000, -82.859
 949.5000,-210.000
 949.6000, -78.254
 949.7000, -82.343
 949.8000, -81.514
 949.9000, -84.262
 950.0000, -80.313
 950.1000, -78.505
 950.2000, -81.595
 950.3000, -78.114
 950.4000, -85.906
 950.5000, -87.042
 950.6000,-210.000
 950.7000,-210.000
 950.8000, -79.655
 950.9000, -80.179
 951.0000, -83.208
 951.1000, -79.684
 951.2000,-210.000
 951.3000, -79.189
 951.4000, -76.431
 951.5000, -86.824
 951.6000,-210.000
 951.7000, -82.419
 951.8000, -81.207
 951.9000, -81.005
 952.0000, -85.055
 952.1000, -80.501
 952.2000, -83.362
 952.3000, -77.628
 952.4000, -78.261
 952.5000, -85.131
 952.6000,-210.000
 952.7000, -80.292
 952.8000, -79.627
 952.9000,-210.000
 953.0000, -84.120
 953.1000,-210.000
 953.2000, -77.075
 953.3000, -81.058
 953.4000,-210.000
 953.5000, -77.088
 953.6000,-210.000
 953.7000,-210.000
 953.8000, -78.504
 953.9000, -81.404
 954.0000, -83.451
 954.1000, -82.187
 954.2000, -87.815
 954.3000, -76.777
 954.4000,-210.000
 954.5000, -77.937
 954.6000,-210.000
 954.7000,-210.000
 954.8000, -84.102
 954.9000, -78.000
 955.0000, -77.631
 955.1000,-210.000
 955.2000, -78.733
 955.3000, -80.037
 955.4000, -81.792
 955.5000,-210.000
 955.6000, -79.607
 955.7000, -80.302
 955.8000,-210.000
 955.9000, -80.797
 956.0000, -83.181
 956.1000, -81.306
 956.2000,-210.000
 956.3000, -77.852
 956.4000, -79.543
 956.5000, -88.115
 956.6000,-210.000
 956.7000, -75.700
 956.8000,-210.000
 956.9000, -77.166
 957.0000,-210.000
 957.1000, -75.663
 957.2000,-210.000
 957.3000, -96.091
 957.4000,-210.000
 957.5000, -81.604
 957.6000, -79.149
 957.7000,-210.000
 957.8000, -82.830
 957.9000, -79.870
 958.0000,-210.000
 958.1000, -76.321
 958.2000, -79.463
 958.3000,-210.000
 958.4000,-210.000
 958.5000,-210.000
 958.6000, -77.162
 958.7000, -87.975
 958.8000, -80.197
 958.9000, -85.657
 959.0000,-210.000
 959.1000,-210.000
 959.2000, -76.422
 959.3000,-210.000
 959.4000, -80.313
 959.5000, -86.139
 959.6000,-210.000
 959.7000, -75.430
 959.8000, -83.653
 959.9000, -79.531
 960.0000, -80.889
 960.1000, -96.229
 960.2000, -81.524
 960.3000,-210.000
 960.4000, -77.844
 960.5000, -82.768
 960.6000, -87.411
 960.7000, -77.477
 960.8000,-210.000
 960.9000, -87.261
 961.0000,-210.000
 961.1000, -82.432
 961.2000,-210.000
 961.3000, -83.216
 961.4000,-210.000
 961.5000,-210.000
 961.6000, -77.580
 961.7000, -79.119
 961.8000, -86.286
 961.9000, -81.410
 962.0000, -83.047
 962.1000, -81.596
 962.2000, -77.121
 962.3000,-210.000
 962.4000, -81.958
 962.5000, -86.568
 962.6000, -80.758
 962.7000, -80.303
 962.8000,-210.000
 962.9000, -79.955
 963.0000, -76.832
 963.1000,-210.000
 963.2000, -81.361
 963.3000,-210.000
 963.4000, -77.902
 963.5000, -82.611
 963.6000,-210.000
 963.7000,-210.000
 963.8000, -82.054
 963.9000, -80.728
 964.0000,-105.550
 964.1000, -83.790
 964.2000, -84.308
 964.3000, -84.170
 964.4000,-210.000
 964.5000, -82.714
 964.6000, -77.998
 964.7000,-210.000
 964.8000, -96.157
 964.9000, -81.185
 965.0000, -86.081
 965.1000, -86.716
 965.2000, -81.683
 965.3000, -79.748
 965.4000,-210.000
 965.5000, -82.447
 965.6000, -83.429
 965.7000, -82.582
 965.8000, -97.179
 965.9000, -80.967
 966.0000,-210.000
 966.1000, -82.334
 966.2000,-210.000
 966.3000, -83.096
 966.4000, -77.283
 966.5000, -87.077
 966.6000, -79.513
 966.7000,-210.000
 966.8000, -80.694
 966.9000, -78.615
 967.0000,-210.000
 967.1000,-210.000
 967.2000, -85.512
 967.3000, -80.831
 967.4000, -81.564
 967.5000, -80.094
 967.6000, -89.013
 967.7000, -83.140
 967.8000,-210.000
 967.9000, -79.068
 968.0000, -81.465
 968.1000, -89.448
 968.2000, -82.140
 968.3000,-210.000
 968.4000, -80.342
 968.5000, -78.643
 968.6000,-210.000
 968.7000, -82.506
 968.8000, -77.308
 968.9000,-210.000
 969.0000,-210.000
 969.1000, -80.093
 969.2000,-210.000
 969.3000, -83.788
 969.4000, -92.455
 969.5000,-210.000
 969.6000, -79.975
 969.7000, -88.620
 969.8000, -77.687
 969.9000,-210.000
 970.0000,-210.000
 970.1000, -81.576
 970.2000, -76.937
 970.3000, -80.854
 970.4000,-210.000
 970.5000, -79.105
 970.6000, -89.508
 970.7000, -78.277
 970.8000, -80.341
 970.9000,-210.000
 971.0000,-210.000
 971.1000,-210.000
 971.2000, -77.440
 971.3000, -81.388
 971.4000, -83.642
 971.5000,-210.000
 971.6000, -78.611
 971.7000,-210.000
 971.8000, -82.234
 971.9000, -78.416
 972.0000, -97.790
 972.1000, -87.158
 972.2000, -87.807
 972.3000, -79.925
 972.4000,-210.000
 972.5000,-210.000
 972.6000, -87.795
 972.7000, -80.122
 972.8000, -85.262
 972.9000, -83.144
 973.0000, -91.023
 973.1000, -80.282
 973.2000, -79.300
 973.3000,-210.000
 973.4000, -80.840
 973.5000, -79.618
 973.6000,-210.000
 973.7000, -85.940
 973.8000, -81.802
 973.9000, -81.900
 974.0000, -81.668
 974.1000,-210.000
 974.2000, -78.286
 974.3000, -84.443
 974.4000, -90.588
 974.5000,-210.000
 974.6000, -85.075
 974.7000, -83.537
 974.8000, -83.026
 974.9000,-210.000
 975.0000, -79.102
 975.1000, -84.324
 975.2000,-210.000
 975.3000,-210.000
 975.4000, -82.872
 975.5000, -82.288
 975.6000, -83.127
 975.7000, -90.700
 975.8000,-210.000
 975.9000, -84.010
 976.0000, -82.160
 976.1000, -78.264
 976.2000, -87.281
 976.3000, -83.203
 976.4000, -85.912
 976.5000,-210.000
 976.6000,-210.000
 976.7000, -84.049
 976.8000,-210.000
 976.9000, -80.403
 977.0000,-210.000
 977.1000,-210.000
 977.2000, -78.427
 977.3000, -84.330
 977.4000, -86.239
 977.5000, -82.835
 977.6000,-210.000
 977.7000, -81.379
 977.8000, -84.869
 977.9000, -79.114
 978.0000,-210.000
 978.1000, -85.068
 978.2000, -93.427
 978.3000, -88.823
 978.4000, -82.382
 978.5000, -84.085
 978.6000, -83.206
 978.7000, -83.745
 978.8000, -82.071
 978.9000, -84.568
 979.0000, -81.414
 979.1000,-210.000
 979.2000, -82.523
 979.3000, -85.913
 979.4000, -84.906
 979.5000, -83.463
 979.6000, -81.154
 979.7000,-210.000
 979.8000, -80.382
 979.9000, -84.148
 980.0000, -83.591
 980.1000,-210.000
 980.2000, -79.965
 980.3000, -83.261
 980.4000, -79.951
 980.5000, -77.942
 980.6000, -77.266
 980.7000, -82.677
 980.8000,-210.000
 980.9000,-210.000
 981.0000, -79.751
 981.1000, -86.680
 981.2000,-105.297
 981.3000, -81.040
 981.4000, -79.997
 981.5000, -82.212
 981.6000, -83.681
 981.7000,-210.000
 981.8000,-112.848
 981.9000, -85.342
 982.0000, -80.840
 982.1000, -79.880
 982.2000, -80.015
 982.3000, -80.147
 982.4000, -86.010
 982.5000, -80.389
 982.6000,-210.000
 982.7000, -83.254
 982.8000,-210.000
 982.9000, -82.205
 983.0000, -81.556
 983.1000, -82.426
 983.2000,-210.000
 983.3000, -79.247
 983.4000,-210.000
 983.5000, -81.715
 983.6000, -79.144
 983.7000,-210.000
 983.8000, -77.289
 983.9000,-210.000
 984.0000, -79.603
 984.1000, -81.024
 984.2000, -80.067
 984.3000,-210.000
 984.4000, -83.167
 984.5000, -80.091
 984.6000,-210.000
 984.7000, -86.736
 984.8000, -83.814
 984.9000, -83.161
 985.0000, -88.299
 985.1000, -82.329
 985.2000, -84.980
 985.3000, -84.665
 985.4000, -79.470
 985.5000, -81.907
 985.6000, -87.808
 985.7000,-210.000
 985.8000, -81.079
 985.9000, -87.811
 986.0000, -78.597
 986.1000, -82.724
 986.2000, -83.997
 986.3000, -82.335
 986.4000,-210.000
 986.5000, -87.727
 986.6000, -83.208
 986.7000, -81.376
 986.8000, -76.728
 986.9000,-210.000
 987.0000, -91.509
 987.1000,-210.000
 987.2000,-210.000
 987.3000, -78.000
 987.4000, -90.754
 987.5000, -82.057
 987.6000,-210.000
 987.7000,-210.000
 987.8000, -82.424
 987.9000, -76.961
 988.0000, -84.051
 988.1000,-210.000
 988.2000, -78.582
 988.3000, -83.745
 988.4000, -84.114
 988.5000, -81.909
 988.6000,-210.000
 988.7000,-210.000
 988.8000, -78.772
 988.9000, -78.558
 989.0000, -86.480
 989.1000,-210.000
 989.2000, -77.680
 989.3000, -79.755
 989.4000,-210.000
 989.5000, -84.416
 989.6000, -87.664
 989.7000, -86.760
 989.8000, -84.039
 989.9000, -79.552
 990.0000,-210.000
 990.1000,-210.000
 990.2000, -78.435
 990.3000,-210.000
 990.4000, -80.678
 990.5000,-210.000
 990.6000, -79.916
 990.7000,-210.000
 990.8000, -80.302
 990.9000,-210.000
 991.0000, -83.180
 991.1000, -93.857
 991.2000, -80.856
 991.3000, -94.875
 991.4000, -82.074
 991.5000, -81.664
 991.6000,-210.000
 991.7000, -82.660
 991.8000, -84.926
 991.9000,-210.000
 992.0000, -79.597
 992.1000, -81.191
 992.2000, -86.374
 992.3000, -83.530
 992.4000, -84.390
 992.5000, -81.840
 992.6000, -80.618
 992.7000, -82.494
 992.8000, -82.157
 992.9000, -81.157
 993.0000, -81.335
 993.1000, -86.418
 993.2000, -84.234
 993.3000, -79.741
 993.4000, -83.926
 993.5000, -84.592
 993.6000, -81.714
 993.7000,-210.000
 993.8000, -80.800
 993.9000,-210.000
 994.0000,-210.000
 994.1000, -84.028
 994.2000, -84.458
 994.3000, -80.944
 994.4000, -82.439
 994.5000, -86.298
 994.6000, -86.010
 994.7000, -84.204
 994.8000, -83.708
 994.9000, -79.608
 995.0000,-210.000
 995.1000, -78.682
 995.2000, -81.726
 995.3000, -86.821
 995.4000, -82.952
 995.5000, -80.938
 995.6000, -86.272
 995.7000, -95.472
 995.8000, -80.672
 995.9000, -84.730
 996.0000, -80.132
 996.1000,-210.000
 996.2000, -93.610
 996.3000, -82.710
 996.4000, -87.053
 996.5000, -83.798
 996.6000, -81.901
 996.7000, -88.384
 996.8000, -84.196
 996.9000, -83.285
 997.0000, -80.856
 997.1000,-210.000
 997.2000, -83.369
 997.3000, -84.167
 997.4000, -81.899
 997.5000, -84.476
 997.6000, -81.918
 997.7000, -84.827
 997.8000, -85.358
 997.9000, -79.486
 998.0000,-210.000
 998.1000, -87.864
 998.2000, -82.497
 998.3000, -83.398
 998.4000, -89.524
 998.5000, -83.291
 998.6000, -81.752
 998.7000, -81.216
 998.8000, -84.883
 998.9000,-210.000
 999.0000, -83.573
 999.1000, -86.159
 999.2000, -80.366
 999.3000, -83.266
 999.4000,-210.000
 999.5000, -83.168
 999.6000, -83.190
 999.7000, -86.283
 999.8000, -80.368
 999.9000, -85.274
1000.0000, -82.830
1000.1000, -79.939
1000.2000, -80.856
1000.3000, -81.855
1000.4000, -83.329
1000.5000, -81.099
1000.6000,-100.762
1000.7000, -81.923
1000.8000, -78.809
1000.9000, -82.798
1001.0000, -81.469
1001.1000, -92.115
1001.2000, -78.001
1001.3000, -83.405
1001.4000,-210.000
1001.5000, -80.376
1001.6000, -88.644
1001.7000, -83.052
1001.8000, -81.717
1001.9000, -79.943
1002.0000, -90.455
1002.1000,-100.772
1002.2000, -77.964
1002.3000, -85.975
1002.4000, -80.135
1002.5000,-210.000
1002.6000,-210.000
1002.7000, -79.725
1002.8000, -81.017
1002.9000, -82.734
1003.0000, -82.103
1003.1000, -82.857
1003.2000, -79.317
1003.3000, -97.339
1003.4000, -91.546
1003.5000, -81.363
1003.6000,-210.000
1003.7000, -82.087
1003.8000, -80.551
1003.9000, -93.212
1004.0000, -81.371
1004.1000, -79.291
1004.2000, -87.576
1004.3000, -78.084
1004.4000,-210.000
1004.5000, -82.374
1004.6000, -82.946
1004.7000, -82.109
1004.8000,-210.000
1004.9000, -78.462
1005.0000, -81.807
1005.1000, -93.695
1005.2000, -82.113
1005.3000, -93.069
1005.4000, -81.827
1005.5000, -80.871
1005.6000, -85.764
1005.7000, -88.506
1005.8000, -80.703
1005.9000, -88.261
1006.0000, -82.893
1006.1000, -80.396
1006.2000, -82.215
1006.3000, -81.759
1006.4000, -82.784
1006.5000, -94.141
1006.6000, -80.936
1006.7000, -81.378
1006.8000, -86.902
1006.9000, -80.330
1007.0000, -82.957
1007.1000, -77.835
1007.2000, -79.549
1007.3000, -85.247
1007.4000, -82.315
1007.5000, -87.751
1007.6000, -85.267
1007.7000,-210.000
1007.8000, -79.779
1007.9000, -85.829
1008.0000, -79.899
1008.1000, -89.007
1008.2000, -92.896
1008.3000, -81.493
1008.4000, -79.762
1008.5000, -82.243
1008.6000, -82.495
1008.7000, -82.056
1008.8000, -87.445
1008.9000, -81.252
1009.0000, -81.322
1009.1000, -80.704
1009.2000, -89.863
1009.3000, -79.495
1009.4000, -80.819
1009.5000,-210.000
1009.6000, -82.689
1009.7000, -82.730
1009.8000, -80.462
1009.9000, -84.812
1010.0000, -80.431
1010.1000, -81.810
1010.2000, -82.157
1010.3000, -84.752
1010.4000, -82.576
1010.5000, -81.126
1010.6000, -82.061
1010.7000, -79.799
1010.8000,-210.000
1010.9000, -79.301
1011.0000,-210.000
1011.1000, -81.644
1011.2000, -84.726
1011.3000, -81.679
1011.4000, -80.312
1011.5000, -78.372
1011.6000,-210.000
1011.7000, -83.803
1011.8000, -83.507
1011.9000, -83.485
1012.0000, -86.115
1012.1000, -77.624
1012.2000, -85.947
1012.3000, -86.417
1012.4000, -86.907
1012.5000, -80.681
1012.6000, -78.004
1012.7000, -84.255
1012.8000, -82.154
1012.9000, -83.534
1013.0000, -77.025
1013.1000,-210.000
1013.2000,-210.000
1013.3000, -79.279
1013.4000,-210.000
1013.5000, -79.649
1013.6000, -84.247
1013.7000, -76.957
1013.8000,-210.000
1013.9000, -84.351
1014.0000, -82.252
1014.1000, -82.652
1014.2000, -83.592
1014.3000, -78.259
1014.4000, -81.360
1014.5000, -83.683
1014.6000, -81.817
1014.7000, -82.707
1014.8000, -81.761
1014.9000, -80.766
1015.0000, -85.325
1015.1000, -82.235
1015.2000, -81.511
1015.3000, -83.435
1015.4000, -80.563
1015.5000, -81.057
1015.6000, -78.243
1015.7000,-210.000
1015.8000, -78.984
1015.9000, -79.597
1016.0000, -81.235
1016.1000, -80.804
1016.2000, -83.168
1016.3000, -80.712
1016.4000, -79.650
1016.5000, -81.144
1016.6000, -82.442
1016.7000, -81.620
1016.8000, -81.357
1016.9000, -82.029
1017.0000, -82.726
1017.1000, -79.372
1017.2000, -80.089
1017.3000, -81.162
1017.4000, -92.949
1017.5000, -80.632
1017.6000, -82.213
1017.7000, -85.008
1017.8000, -79.587
1017.9000, -79.910
1018.0000, -81.655
1018.1000, -85.146
1018.2000, -78.579
1018.3000, -87.318
1018.4000, -84.080
1018.5000, -79.724
1018.6000, -80.950
1018.7000, -80.343
1018.8000, -80.845
1018.9000, -81.806
1019.0000, -80.933
1019.1000, -79.849
1019.2000, -82.282
1019.3000, -81.128
1019.4000, -79.632
1019.5000, -81.898
1019.6000, -81.521
1019.7000, -80.472
1019.8000, -80.776
1019.9000, -78.735
1020.0000, -81.326
1020.1000, -80.009
1020.2000, -84.015
1020.3000, -78.568
1020.4000, -80.408
1020.5000, -81.610
1020.6000, -82.921
1020.7000, -79.775
1020.8000, -79.667
1020.9000, -81.664
1021.0000, -80.259
1021.1000, -78.763
1021.2000, -81.423
1021.3000, -82.447
1021.4000, -78.399
1021.5000, -81.555
1021.6000, -80.752
1021.7000, -78.363
1021.8000, -78.329
1021.9000, -79.414
1022.0000, -90.336
1022.1000, -79.828
1022.2000, -79.531
1022.3000, -83.128
1022.4000, -80.491
1022.5000, -79.548
1022.6000, -80.534
1022.7000, -84.344
1022.8000, -80.060
1022.9000, -80.293
1023.0000, -81.737
1023.1000, -81.458
1023.2000, -81.014
1023.3000, -79.506
1023.4000, -78.861
1023.5000, -81.958
1023.6000, -80.019
1023.7000, -80.818
1023.8000, -80.584
1023.9000, -81.498
1024.0000, -80.039
1024.1000, -80.539
1024.2000, -78.242
1024.3000, -86.993
1024.4000, -77.932
1024.5000,-210.000
1024.6000, -79.011
1024.7000, -81.068
1024.8000, -80.408
1024.9000, -86.615
1025.0000, -78.286
1025.1000, -78.326
1025.2000, -82.176
1025.3000, -80.929
1025.4000, -78.583
1025.5000, -82.708
1025.6000, -80.500
1025.7000, -80.963
1025.8000, -82.487
1025.9000, -78.447
1026.0000, -79.248
1026.1000, -83.572
1026.2000, -81.205
1026.3000, -80.449
1026.4000, -77.977
1026.5000, -83.759
1026.6000, -84.060
1026.7000, -78.144
1026.8000, -81.097
1026.9000, -79.572
1027.0000, -80.671
1027.1000, -79.316
1027.2000, -80.195
1027.3000, -79.900
1027.4000, -81.045
1027.5000, -80.724
1027.6000, -79.804
1027.7000, -79.456
1027.8000, -84.458
1027.9000, -83.235
1028.0000, -79.357
1028.1000, -78.051
1028.2000, -81.449
1028.3000, -79.715
1028.4000, -79.307
1028.5000, -86.232
1028.6000, -80.093
1028.7000, -79.275
1028.8000, -79.579
1028.9000, -80.499
1029.0000, -80.210
1029.1000, -81.494
1029.2000, -79.323
1029.3000, -81.934
1029.4000, -80.905
1029.5000, -78.422
1029.6000, -78.816
1029.7000, -78.034
1029.8000, -85.294
1029.9000, -81.516
1030.0000, -81.277
1030.1000, -80.583
1030.2000, -83.439
1030.3000, -78.845
1030.4000, -79.316
1030.5000, -78.911
1030.6000, -81.578
1030.7000, -79.018
1030.8000, -79.864
1030.9000, -81.409
1031.0000, -79.777
1031.1000, -78.670
1031.2000, -78.956
1031.3000, -79.976
1031.4000, -82.102
1031.5000, -80.904
1031.6000, -77.968
1031.7000, -79.900
1031.8000, -80.512
1031.9000, -80.797
1032.0000, -80.416
1032.1000, -78.744
1032.2000, -79.729
1032.3000, -82.481
1032.4000, -80.074
1032.5000, -79.804
1032.6000, -79.412
1032.7000, -80.701
1032.8000, -81.468
1032.9000, -84.021
1033.0000, -78.070
1033.1000, -78.333
1033.2000, -82.692
1033.3000, -79.258
1033.4000, -77.576
1033.5000, -78.672
1033.6000,-210.000
1033.7000, -86.741
1033.8000, -77.769
1033.9000, -85.325
1034.0000, -80.480
1034.1000, -80.287
1034.2000, -78.668
1034.3000, -80.458
1034.4000, -80.728
1034.5000, -78.189
1034.6000, -78.510
1034.7000, -85.466
1034.8000, -79.998
1034.9000, -78.906
1035.0000, -79.903
1035.1000, -82.007
1035.2000, -80.686
1035.3000, -78.685
1035.4000, -82.525
1035.5000, -78.242
1035.6000, -78.881
1035.7000, -80.150
1035.8000, -79.038
1035.9000, -77.274
1036.0000, -79.376
1036.1000, -78.676
1036.2000, -82.427
1036.3000, -81.416
1036.4000, -79.404
1036.5000, -80.106
1036.6000, -80.441
1036.7000, -80.294
1036.8000, -80.710
1036.9000, -79.107
1037.0000, -80.971
1037.1000, -85.593
1037.2000, -77.724
1037.3000, -79.504
1037.4000, -82.102
1037.5000, -81.293
1037.6000, -80.397
1037.7000, -79.572
1037.8000, -81.526
1037.9000, -79.464
1038.0000, -80.994
1038.1000, -79.900
1038.2000, -78.581
1038.3000, -90.447
1038.4000, -87.684
1038.5000, -81.557
1038.6000, -79.625
1038.7000, -80.163
1038.8000, -79.209
1038.9000,-210.000
1039.0000, -74.837
1039.1000, -83.387
1039.2000,-210.000
1039.3000, -78.814
1039.4000, -79.819
1039.5000, -84.138
1039.6000, -82.173
1039.7000, -77.539
1039.8000, -81.672
1039.9000, -78.950
1040.0000, -82.086
1040.1000, -80.247
1040.2000, -78.758
1040.3000, -80.551
1040.4000, -78.504
1040.5000, -84.559
1040.6000, -79.181
1040.7000, -79.052
1040.8000, -80.540
1040.9000, -78.819
1041.0000, -82.270
1041.1000, -79.727
1041.2000, -81.079
1041.3000, -80.858
1041.4000, -79.189
1041.5000, -80.033
1041.6000, -80.224
1041.7000, -82.658
1041.8000, -78.566
1041.9000, -78.211
1042.0000, -78.771
1042.1000, -81.449
1042.2000, -80.408
1042.3000, -81.908
1042.4000, -80.093
1042.5000, -79.012
1042.6000, -83.873
1042.7000, -79.176
1042.8000, -81.094
1042.9000, -83.653
1043.0000, -80.314
1043.1000, -79.220
1043.2000, -79.281
1043.3000, -80.978
1043.4000, -80.593
1043.5000, -78.087
1043.6000, -79.451
1043.7000, -77.884
1043.8000, -76.280
1043.9000, -81.295
1044.0000, -77.917
1044.1000, -75.904
1044.2000, -76.440
1044.3000, -74.048
1044.4000, -74.047
1044.5000, -72.319
1044.6000, -71.303
1044.7000, -69.695
1044.8000, -68.361
1044.9000, -67.229
1045.0000, -66.013
1045.1000, -65.003
1045.2000, -64.131
1045.3000, -63.593
1045.4000, -63.035
1045.5000, -62.891
1045.6000, -63.002
1045.7000, -63.218
1045.8000, -63.695
1045.9000, -64.355
1046.0000, -65.427
1046.1000, -66.430
1046.2000, -67.558
1046.3000, -68.447
1046.4000, -69.599
1046.5000, -70.374
1046.6000, -71.515
1046.7000, -72.176
1046.8000, -72.113
1046.9000, -73.814
1047.0000, -75.894
1047.1000, -76.521
1047.2000, -77.600
1047.3000, -77.031
1047.4000, -77.537
1047.5000, -77.860
1047.6000, -78.047
1047.7000, -76.195
1047.8000, -79.754
1047.9000, -81.524
1048.0000, -77.671
1048.1000, -80.330
1048.2000, -78.482
1048.3000, -78.278
1048.4000, -78.155
1048.5000, -79.645
1048.6000, -81.372
1048.7000, -77.746
1048.8000, -80.536
1048.9000, -76.628
1049.0000, -76.996
1049.1000, -77.491
1049.2000, -77.499
1049.3000, -79.445
1049.4000, -78.368
1049.5000, -80.398
1049.6000, -80.211
1049.7000, -78.301
1049.8000, -79.765
1049.9000, -80.864
1050.0000, -77.022
1050.1000, -80.370
1050.2000, -78.308
1050.3000, -79.207
1050.4000, -80.978
1050.5000, -77.806
1050.6000, -79.073
1050.7000, -76.943
1050.8000, -77.575
1050.9000, -79.602
1051.0000, -80.699
1051.1000, -75.874
1051.2000, -77.862
1051.3000, -82.044
1051.4000, -78.828
1051.5000, -76.523
1051.6000, -76.313
1051.7000, -76.820
1051.8000, -74.265
1051.9000, -74.415
1052.0000, -74.144
1052.1000, -73.727
1052.2000, -72.200
1052.3000, -71.206
1052.4000, -70.964
1052.5000, -70.511
1052.6000, -69.518
1052.7000, -68.494
1052.8000, -67.629
1052.9000, -66.028
1053.0000, -65.816
1053.1000, -63.572
1053.2000, -62.155
1053.3000, -60.364
1053.4000, -58.655
1053.5000, -56.845
1053.6000, -54.527
1053.7000, -52.967
1053.8000, -50.487
1053.9000, -48.813
1054.0000, -46.332
1054.1000, -45.098
1054.2000, -43.339
1054.3000, -41.501
1054.4000, -39.892
1054.5000, -37.996
1054.6000, -36.052
1054.7000, -34.401
1054.8000, -33.098
1054.9000, -32.581
1055.0000, -32.276
1055.1000, -32.301
1055.2000, -32.587
1055.3000, -33.102
1055.4000, -34.440
1055.5000, -36.095
1055.6000, -38.142
1055.7000, -40.006
1055.8000, -42.278
1055.9000, -44.162
1056.0000, -45.782
1056.1000, -47.351
1056.2000, -48.599
1056.3000, -50.141
1056.4000, -51.310
1056.5000, -52.337
1056.6000, -53.991
1056.7000, -54.916
1056.8000, -55.895
1056.9000, -57.542
1057.0000, -58.803
1057.1000, -60.614
1057.2000, -61.135
1057.3000, -63.497
1057.4000, -64.539
1057.5000, -65.470
1057.6000, -66.721
1057.7000, -67.758
1057.8000, -68.601
1057.9000, -69.279
1058.0000, -69.994
1058.1000, -70.179
1058.2000, -70.833
1058.3000, -71.774
1058.4000, -71.522
1058.5000, -71.486
1058.6000, -70.978
1058.7000, -71.434
1058.8000, -70.761
1058.9000, -70.409
1059.0000, -69.916
1059.1000, -69.543
1059.2000, -68.706
1059.3000, -68.198
1059.4000, -67.649
1059.5000, -66.660
1059.6000, -66.304
1059.7000, -64.789
1059.8000, -64.915
1059.9000, -62.573
1060.0000, -62.714
1060.1000, -60.641
1060.2000, -59.865
1060.3000, -59.289
1060.4000, -57.450
1060.5000, -57.039
1060.6000, -55.167
1060.7000, -55.309
1060.8000, -53.662
1060.9000, -53.110
1061.0000, -52.733
1061.1000, -51.705
1061.2000, -51.577
1061.3000, -50.593
1061.4000, -50.466
1061.5000, -49.500
1061.6000, -49.293
1061.7000, -48.584
1061.8000, -47.859
1061.9000, -46.817
1062.0000, -45.971
1062.1000, -44.922
1062.2000, -43.562
1062.3000, -42.826
1062.4000, -41.875
1062.5000, -41.243
1062.6000, -40.524
1062.7000, -40.515
1062.8000, -40.134
1062.9000, -39.663
1063.0000, -39.627
1063.1000, -39.174
1063.2000, -39.117
1063.3000, -38.152
1063.4000, -37.435
1063.5000, -36.478
1063.6000, -35.312
1063.7000, -34.164
1063.8000, -31.831
1063.9000, -27.769
1064.0000, -21.622
1064.1000, -17.877
1064.2000, -14.973
1064.3000, -13.841
1064.4000, -13.024
1064.5000, -12.582
1064.6000, -12.590
1064.7000, -12.904
1064.8000, -13.637
1064.9000, -15.782
1065.0000, -17.067
1065.1000, -20.448
1065.2000, -25.529
1065.3000, -28.389
1065.4000, -30.507
1065.5000, -32.697
1065.6000, -34.679
1065.7000, -36.163
1065.8000, -37.476
1065.9000, -38.852
1066.0000, -40.028
1066.1000, -41.292
1066.2000, -42.583
1066.3000, -43.995
1066.4000, -45.320
1066.5000, -46.348
1066.6000, -47.548
1066.7000, -49.123
1066.8000, -50.043
1066.9000, -50.908
1067.0000, -52.052
1067.1000, -52.801
1067.2000, -53.672
1067.3000, -54.676
1067.4000, -55.285
1067.5000, -56.110
1067.6000, -56.673
1067.7000, -57.807
1067.8000, -57.864
1067.9000, -58.801
1068.0000, -59.288
1068.1000, -59.775
1068.2000, -60.272
1068.3000, -60.532
1068.4000, -61.083
1068.5000, -60.737
1068.6000, -61.564
1068.7000, -61.184
1068.8000, -61.265
1068.9000, -60.973
1069.0000, -61.031
1069.1000, -60.873
1069.2000, -59.977
1069.3000, -59.989
1069.4000, -58.873
1069.5000, -58.633
1069.6000, -57.572
1069.7000, -57.505
1069.8000, -56.400
1069.9000, -55.840
1070.0000, -55.047
1070.1000, -53.697
1070.2000, -53.600
1070.3000, -52.392
1070.4000, -51.767
1070.5000, -50.345
1070.6000, -50.325
1070.7000, -49.186
1070.8000, -47.932
1070.9000, -46.917
1071.0000, -45.721
1071.1000, -45.245
1071.2000, -43.882
1071.3000, -43.467
1071.4000, -41.690
1071.5000, -40.715
1071.6000, -39.781
1071.7000, -38.663
1071.8000, -37.577
1071.9000, -36.213
1072.0000, -35.808
1072.1000, -34.528
1072.2000, -33.870
1072.3000, -32.815
1072.4000, -31.594
1072.5000, -30.898
1072.6000, -30.096
1072.7000, -29.365
1072.8000, -28.277
1072.9000, -27.631
1073.0000, -26.921
1073.1000, -26.120
1073.2000, -25.140
1073.3000, -24.066
1073.4000, -23.004
1073.5000, -21.874
1073.6000, -20.961
1073.7000, -19.591
1073.8000, -18.433
1073.9000, -17.226
1074.0000, -16.111
1074.1000, -14.893
1074.2000, -13.985
1074.3000, -13.218
1074.4000, -12.582
1074.5000, -12.148
1074.6000, -11.897
1074.7000, -11.819
1074.8000, -11.862
1074.9000, -12.197
1075.0000, -12.531
1075.1000, -13.120
1075.2000, -13.843
1075.3000, -14.764
1075.4000, -15.722
1075.5000, -16.778
1075.6000, -18.156
1075.7000, -19.017
1075.8000, -20.043
1075.9000, -20.915
1076.0000, -21.735
1076.1000, -22.409
1076.2000, -22.956
1076.3000, -23.455
1076.4000, -23.598
1076.5000, -24.373
1076.6000, -24.386
1076.7000, -24.740
1076.8000, -24.990
1076.9000, -25.343
1077.0000, -25.575
1077.1000, -25.907
1077.2000, -26.474
1077.3000, -26.664
1077.4000, -27.287
1077.5000, -27.591
1077.6000, -28.432
1077.7000, -28.745
1077.8000, -29.979
1077.9000, -30.728
1078.0000, -31.501
1078.1000, -32.979
1078.2000, -34.249
1078.3000, -35.622
1078.4000, -37.274
1078.5000, -38.875
1078.6000, -40.617
1078.7000, -42.009
1078.8000, -43.348
1078.9000, -44.036
1079.0000, -45.253
1079.1000, -45.865
1079.2000, -46.946
1079.3000, -47.284
1079.4000, -48.469
1079.5000, -49.023
1079.6000, -49.773
1079.7000, -50.220
1079.8000, -51.193
1079.9000, -51.767
1080.0000, -52.040
1080.1000, -52.844
1080.2000, -53.840
1080.3000, -54.068
1080.4000, -54.589
1080.5000, -55.021
1080.6000, -55.366
1080.7000, -56.038
1080.8000, -56.256
1080.9000, -56.040
1081.0000, -56.437
1081.1000, -56.463
1081.2000, -56.134
1081.3000, -55.826
1081.4000, -55.991
1081.5000, -54.925
1081.6000, -54.764
1081.7000, -54.291
1081.8000, -53.977
1081.9000, -52.872
1082.0000, -52.935
1082.1000, -52.005
1082.2000, -51.272
1082.3000, -50.824
1082.4000, -50.198
1082.5000, -49.056
1082.6000, -48.500
1082.7000, -48.146
1082.8000, -47.395
1082.9000, -46.622
1083.0000, -46.177
1083.1000, -45.531
1083.2000, -44.700
1083.3000, -44.097
1083.4000, -43.611
1083.5000, -42.604
1083.6000, -42.163
1083.7000, -41.544
1083.8000, -40.751
1083.9000, -40.133
1084.0000, -39.381
1084.1000, -38.639
1084.2000, -37.571
1084.3000, -37.032
1084.4000, -36.105
1084.5000, -35.425
1084.6000, -34.977
1084.7000, -34.940
1084.8000, -34.831
1084.9000, -35.221
1085.0000, -35.739
1085.1000, -36.195
1085.2000, -37.302
1085.3000, -38.608
1085.4000, -39.565
1085.5000, -40.499
1085.6000, -41.699
1085.7000, -42.439
1085.8000, -43.238
1085.9000, -44.443
1086.0000, -45.079
1086.1000, -45.896
1086.2000, -46.799
1086.3000, -47.922
1086.4000, -48.521
1086.5000, -49.589
1086.6000, -50.433
1086.7000, -51.111
1086.8000, -51.586
1086.9000, -52.380
1087.0000, -53.109
1087.1000, -53.669
1087.2000, -54.134
1087.3000, -54.737
1087.4000, -54.967
1087.5000, -55.140
1087.6000, -55.529
1087.7000, -55.610
1087.8000, -55.736
1087.9000, -55.975
1088.0000, -56.020
1088.1000, -56.031
1088.2000, -56.072
1088.3000, -56.210
1088.4000, -56.071
1088.5000, -56.177
1088.6000, -56.159
1088.7000, -56.043
1088.8000, -56.094
1088.9000, -56.029
1089.0000, -55.923
1089.1000, -56.009
1089.2000, -55.884
1089.3000, -55.830
1089.4000, -55.778
1089.5000, -55.829
1089.6000, -55.801
1089.7000, -55.586
1089.8000, -55.695
1089.9000, -55.712
1090.0000, -55.588
1090.1000, -55.544
1090.2000, -55.510
1090.3000, -55.464
1090.4000, -55.345
1090.5000, -55.358
1090.6000, -55.370
1090.7000, -55.194
1090.8000, -55.281
1090.9000, -55.071
1091.0000, -55.126
1091.1000, -55.046
1091.2000, -55.069
1091.3000, -55.027
1091.4000, -54.916
1091.5000, -54.843
1091.6000, -54.790
1091.7000, -54.777
1091.8000, -54.657
1091.9000, -54.708
1092.0000, -54.565
1092.1000, -54.460
1092.2000, -54.409
1092.3000, -54.371
1092.4000, -54.309
1092.5000, -54.262
1092.6000, -54.088
1092.7000, -54.080
1092.8000, -54.020
1092.9000, -53.881
1093.0000, -53.885
1093.1000, -53.809
1093.2000, -53.665
1093.3000, -53.563
1093.4000, -53.530
1093.5000, -53.393
1093.6000, -53.272
1093.7000, -53.173
1093.8000, -53.120
1093.9000, -52.969
1094.0000, -52.853
1094.1000, -52.731
1094.2000, -52.601
1094.3000, -52.491
1094.4000, -52.349
1094.5000, -52.251
1094.6000, -52.165
1094.7000, -52.043
1094.8000, -52.024
1094.9000, -51.811
1095.0000, -51.763
1095.1000, -51.668
1095.2000, -51.607
1095.3000, -51.506
1095.4000, -51.442
1095.5000, -51.376
1095.6000, -51.322
1095.7000, -51.150
1095.8000, -51.091
1095.9000, -51.013
1096.0000, -50.846
1096.1000, -50.753
1096.2000, -50.662
1096.3000, -50.466
1096.4000, -50.408
1096.5000, -50.286
1096.6000, -50.166
1096.7000, -50.070
1096.8000, -49.993
1096.9000, -49.790
1097.0000, -49.693
1097.1000, -49.635
1097.2000, -49.495
1097.3000, -49.349
1097.4000, -49.253
1097.5000, -49.072
1097.6000, -48.857
1097.7000, -48.810
1097.8000, -48.675
1097.9000, -48.521
1098.0000, -48.366
1098.1000, -48.262
1098.2000, -48.202
1098.3000, -48.066
1098.4000, -47.917
1098.5000, -47.756
1098.6000, -47.654
1098.7000, -47.534
1098.8000, -47.451
1098.9000, -47.283
1099.0000, -47.108
1099.1000, -47.011
1099.2000, -46.899
1099.3000, -46.729
1099.4000, -46.617
1099.5000, -46.529
1099.6000, -46.396
1099.7000, -46.207
1099.8000, -46.118
1099.9000, -46.013
1100.0000, -45.921
1100.1000, -45.786
1100.2000, -45.665
1100.3000, -45.475
1100.4000, -45.347
1100.5000, -45.226
1100.6000, -45.042
1100.7000, -44.973
1100.8000, -44.823
1100.9000, -44.741
1101.0000, -44.607
1101.1000, -44.432
1101.2000, -44.338
1101.3000, -44.212
1101.4000, -44.071
1101.5000, -43.908
1101.6000, -43.809
1101.7000, -43.598
1101.8000, -43.505
1101.9000, -43.429
1102.0000, -43.252
1102.1000, -43.137
1102.2000, -42.932
1102.3000, -42.812
1102.4000, -42.661
1102.5000, -42.600
1102.6000, -42.430
1102.7000, -42.246
1102.8000, -42.170
1102.9000, -41.997
1103.0000, -41.888
1103.1000, -41.688
1103.2000, -41.591
1103.3000, -41.391
1103.4000, -41.244
1103.5000, -41.091
1103.6000, -40.938
1103.7000, -40.804
1103.8000, -40.629
1103.9000, -40.434
1104.0000, -40.337
1104.1000, -40.124
1104.2000, -39.918
1104.3000, -39.800
1104.4000, -39.653
1104.5000, -39.494
1104.6000, -39.324
1104.7000, -39.085
1104.8000, -38.964
1104.9000, -38.783
1105.0000, -38.636
1105.1000, -38.404
1105.2000, -38.298
1105.3000, -38.127
1105.4000, -37.904
1105.5000, -37.684
1105.6000, -37.567
1105.7000, -37.357
1105.8000, -37.126
1105.9000, -36.931
1106.0000, -36.798
1106.1000, -36.532
1106.2000, -36.335
1106.3000, -36.163
1106.4000, -35.971
1106.5000, -35.716
1106.6000, -35.647
1106.7000, -35.404
1106.8000, -35.187
1106.9000, -35.016
1107.0000, -34.771
1107.1000, -34.597
1107.2000, -34.377
1107.3000, -34.162
1107.4000, -33.990
1107.5000, -33.816
1107.6000, -33.631
1107.7000, -33.444
1107.8000, -33.243
1107.9000, -33.089
1108.0000, -32.822
1108.1000, -32.626
1108.2000, -32.458
1108.3000, -32.277
1108.4000, -32.084
1108.5000, -31.862
1108.6000, -31.707
1108.7000, -31.574
1108.8000, -31.364
1108.9000, -31.152
1109.0000, -31.002
1109.1000, -30.809
1109.2000, -30.579
1109.3000, -30.419
1109.4000, -30.267
1109.5000, -30.075
1109.6000, -29.905
1109.7000, -29.708
1109.8000, -29.484
1109.9000, -29.392
1110.0000, -29.169
1110.1000, -28.998
1110.2000, -28.874
1110.3000, -28.636
1110.4000, -28.461
1110.5000, -28.198
1110.6000, -28.097
1110.7000, -27.891
1110.8000, -27.765
1110.9000, -27.590
1111.0000, -27.397
1111.1000, -27.235
1111.2000, -27.091
1111.3000, -26.884
1111.4000, -26.704
1111.5000, -26.512
1111.6000, -26.347
1111.7000, -26.175
1111.8000, -26.016
1111.9000, -25.820
1112.0000, -25.650
1112.1000, -25.510
1112.2000, -25.304
1112.3000, -25.142
1112.4000, -24.959
1112.5000, -24.839
1112.6000, -24.598
1112.7000, -24.464
1112.8000, -24.295
1112.9000, -24.127
1113.0000, -23.952
1113.1000, -23.806
1113.2000, -23.558
1113.3000, -23.433
1113.4000, -23.341
1113.5000, -23.152
1113.6000, -22.967
1113.7000, -22.849
1113.8000, -22.541
1113.9000, -22.544
1114.0000, -22.284
1114.1000, -22.135
1114.2000, -22.026
1114.3000, -21.852
1114.4000, -21.707
1114.5000, -21.551
1114.6000, -21.365
1114.7000, -21.214
1114.8000, -21.112
1114.9000, -20.961
1115.0000, -20.791
1115.1000, -20.628
1115.2000, -20.493
1115.3000, -20.290
1115.4000, -20.159
1115.5000, -20.039
1115.6000, -19.920
1115.7000, -19.800
1115.8000, -19.698
1115.9000, -19.464
1116.0000, -19.410
1116.1000, -19.309
1116.2000, -19.157
1116.3000, -19.038
1116.4000, -18.927
1116.5000, -18.860
1116.6000, -18.807
1116.7000, -18.707
1116.8000, -18.671
1116.9000, -18.607
1117.0000, -18.463
1117.1000, -18.423
1117.2000, -18.378
1117.3000, -18.347
1117.4000, -18.324
1117.5000, -18.302
1117.6000, -18.300
1117.7000, -18.368
1117.8000, -18.340
1117.9000, -18.350
1118.0000, -18.352
1118.1000, -18.357
1118.2000, -18.433
1118.3000, -18.499
1118.4000, -18.482
1118.5000, -18.581
1118.6000, -18.661
1118.7000, -18.753
1118.8000, -18.756
1118.9000, -18.893
1119.0000, -18.934
1119.1000, -19.000
1119.2000, -19.224
1119.3000, -19.242
1119.4000, -19.307
1119.5000, -19.312
1119.6000, -19.515
1119.7000, -19.605
1119.8000, -19.614
1119.9000, -19.735
1120.0000, -19.831
1120.1000, -19.931
1120.2000, -20.014
1120.3000, -20.037
1120.4000, -20.103
1120.5000, -20.143
1120.6000, -20.134
1120.7000, -20.156
1120.8000, -20.207
1120.9000, -20.150
1121.0000, -20.186
1121.1000, -20.081
1121.2000, -20.032
1121.3000, -19.984
1121.4000, -19.949
1121.5000, -19.799
1121.6000, -19.770
1121.7000, -19.587
1121.8000, -19.490
1121.9000, -19.336
1122.0000, -19.176
1122.1000, -19.059
1122.2000, -18.847
1122.3000, -18.765
1122.4000, -18.576
1122.5000, -18.460
1122.6000, -18.335
1122.7000, -18.271
1122.8000, -18.094
1122.9000, -18.035
1123.0000, -18.075
1123.1000, -18.040
1123.2000, -18.098
1123.3000, -18.153
1123.4000, -18.254
1123.5000, -18.414
1123.6000, -18.596
1123.7000, -18.859
1123.8000, -19.096
1123.9000, -19.412
1124.0000, -19.736
1124.1000, -20.107
1124.2000, -20.453
1124.3000, -20.904
1124.4000, -21.303
1124.5000, -21.795
1124.6000, -22.156
1124.7000, -22.769
1124.8000, -23.222
1124.9000, -23.789
1125.0000, -24.330
1125.1000, -24.807
1125.2000, -25.421
1125.3000, -25.932
1125.4000, -26.559
1125.5000, -27.033
1125.6000, -27.652
1125.7000, -28.114
1125.8000, -28.644
1125.9000, -29.104
1126.0000, -29.635
1126.1000, -30.175
1126.2000, -30.537
1126.3000, -31.045
1126.4000, -31.423
1126.5000, -31.895
1126.6000, -32.216
1126.7000, -32.527
1126.8000, -32.836
1126.9000, -33.279
1127.0000, -33.380
1127.1000, -33.665
1127.2000, -33.850
1127.3000, -34.057
1127.4000, -34.304
1127.5000, -34.459
1127.6000, -34.821
1127.7000, -34.804
1127.8000, -35.119
1127.9000, -35.173
1128.0000, -35.431
1128.1000, -35.466
1128.2000, -35.636
1128.3000, -35.817
1128.4000, -35.909
1128.5000, -36.059
1128.6000, -36.248
1128.7000, -36.417
1128.8000, -36.488
1128.9000, -36.650
1129.0000, -36.923
1129.1000, -37.035
1129.2000, -37.168
1129.3000, -37.311
1129.4000, -37.466
1129.5000, -37.669
1129.6000, -37.782
1129.7000, -38.068
1129.8000, -38.110
1129.9000, -38.453
1130.0000, -38.602
1130.1000, -38.702
1130.2000, -38.966
1130.3000, -39.065
1130.4000, -39.221
1130.5000, -39.340
1130.6000, -39.594
1130.7000, -39.799
1130.8000, -40.032
1130.9000, -40.126
1131.0000, -40.278
1131.1000, -40.682
1131.2000, -40.704
1131.3000, -40.921
1131.4000, -41.084
1131.5000, -41.542
1131.6000, -41.610
1131.7000, -41.860
1131.8000, -42.234
1131.9000, -42.435
1132.0000, -42.572
1132.1000, -42.851
1132.2000, -43.175
1132.3000, -43.304
1132.4000, -43.584
1132.5000, -43.921
1132.6000, -43.998
1132.7000, -44.242
1132.8000, -44.550
1132.9000, -44.776
1133.0000, -44.870
1133.1000, -45.145
1133.2000, -45.429
1133.3000, -45.602
1133.4000, -45.717
1133.5000, -46.022
1133.6000, -46.201
1133.7000, -46.525
1133.8000, -46.642
1133.9000, -47.048
1134.0000, -47.111
1134.1000, -47.583
1134.2000, -47.860
1134.3000, -48.002
1134.4000, -48.257
1134.5000, -48.613
1134.6000, -49.017
1134.7000, -49.077
1134.8000, -49.466
1134.9000, -49.565
1135.0000, -50.137
1135.1000, -49.899
1135.2000, -50.414
1135.3000, -50.582
1135.4000, -50.753
1135.5000, -51.104
1135.6000, -51.068
1135.7000, -51.647
1135.8000, -51.366
1135.9000, -51.986
1136.0000, -51.951
1136.1000, -52.377
1136.2000, -52.328
1136.3000, -52.635
1136.4000, -52.609
1136.5000, -52.837
1136.6000, -52.925
1136.7000, -52.969
1136.8000, -53.244
1136.9000, -53.253
1137.0000, -53.542
1137.1000, -53.482
1137.2000, -53.770
1137.3000, -53.803
1137.4000, -53.925
1137.5000, -54.132
1137.6000, -54.234
1137.7000, -54.369
1137.8000, -54.649
1137.9000, -54.712
1138.0000, -54.953
1138.1000, -55.296
1138.2000, -55.450
1138.3000, -55.756
1138.4000, -55.955
1138.5000, -56.382
1138.6000, -56.504
1138.7000, -56.952
1138.8000, -57.170
1138.9000, -57.407
1139.0000, -57.866
1139.1000, -58.159
1139.2000, -58.483
1139.3000, -58.689
1139.4000, -59.199
1139.5000, -59.400
1139.6000, -59.836
1139.7000, -60.110
1139.8000, -60.513
1139.9000, -60.657
1140.0000, -60.861
1140.1000, -61.310
1140.2000, -61.414
1140.3000, -61.816
1140.4000, -61.966
1140.5000, -62.332
1140.6000, -62.270
1140.7000, -62.673
1140.8000, -62.864
1140.9000, -63.087
1141.0000, -63.296
1141.1000, -63.490
1141.2000, -63.611
1141.3000, -63.776
1141.4000, -64.130
1141.5000, -64.163
1141.6000, -64.410
1141.7000, -64.519
1141.8000, -64.678
1141.9000, -64.795
1142.0000, -65.001
1142.1000, -65.302
1142.2000, -65.289
1142.3000, -65.585
1142.4000, -65.836
1142.5000, -65.916
1142.6000, -66.026
1142.7000, -66.401
1142.8000, -66.413
1142.9000, -66.326
1143.0000, -66.699
1143.1000, -66.942
1143.2000, -66.900
1143.3000, -67.072
1143.4000, -67.336
1143.5000, -67.189
1143.6000, -67.451
1143.7000, -67.434
1143.8000, -67.460
1143.9000, -67.535
1144.0000, -67.631
1144.1000, -67.683
1144.2000, -67.689
1144.3000, -67.617
1144.4000, -67.711
1144.5000, -67.607
1144.6000, -67.667
1144.7000, -67.531
1144.8000, -67.684
1144.9000, -67.638
1145.0000, -67.554
1145.1000, -67.467
1145.2000, -67.534
1145.3000, -67.512
1145.4000, -67.411
1145.5000, -67.403
1145.6000, -67.764
1145.7000, -67.308
1145.8000, -67.507
1145.9000, -67.666
1146.0000, -67.403
1146.1000, -67.364
1146.2000, -67.636
1146.3000, -67.362
1146.4000, -67.344
1146.5000, -67.388
1146.6000, -67.349
1146.7000, -67.381
1146.8000, -67.556
1146.9000, -67.369
1147.0000, -67.272
1147.1000, -67.295
1147.2000, -67.449
1147.3000, -67.338
1147.4000, -67.238
1147.5000, -67.257
1147.6000, -67.179
1147.7000, -67.066
1147.8000, -67.347
1147.9000, -67.131
1148.0000, -67.083
1148.1000, -67.005
1148.2000, -66.901
1148.3000, -67.094
1148.4000, -66.829
1148.5000, -66.699
1148.6000, -66.586
1148.7000, -66.751
1148.8000, -66.433
1148.9000, -66.540
1149.0000, -66.623
1149.1000, -66.284
1149.2000, -66.221
1149.3000, -66.165
1149.4000, -66.169
1149.5000, -65.976
1149.6000, -65.984
1149.7000, -65.942
1149.8000, -65.767
1149.9000, -65.848
1150.0000, -65.764
1150.1000, -65.745
1150.2000, -65.615
1150.3000, -65.608
1150.4000, -65.607
1150.5000, -65.472
1150.6000, -65.454
1150.7000, -65.427
1150.8000, -65.491
1150.9000, -65.255
1151.0000, -65.319
1151.1000, -65.248
1151.2000, -65.262
1151.3000, -65.205
1151.4000, -65.174
1151.5000, -65.204
1151.6000, -65.281
1151.7000, -64.971
1151.8000, -65.118
1151.9000, -65.003
1152.0000, -65.043
1152.1000, -64.871
1152.2000, -64.860
1152.3000, -64.759
1152.4000, -64.633
1152.5000, -64.673
1152.6000, -64.390
1152.7000, -64.355
1152.8000, -64.310
1152.9000, -64.226
1153.0000, -64.022
1153.1000, -63.974
1153.2000, -63.937
1153.3000, -63.677
1153.4000, -63.521
1153.5000, -63.726
1153.6000, -63.474
1153.7000, -63.227
1153.8000, -63.398
1153.9000, -63.030
1154.0000, -63.082
1154.1000, -63.025
1154.2000, -63.059
1154.3000, -62.769
1154.4000, -62.796
1154.5000, -62.768
1154.6000, -62.564
1154.7000, -62.520
1154.8000, -62.634
1154.9000, -62.359
1155.0000, -62.323
1155.1000, -62.161
1155.2000, -62.161
1155.3000, -61.989
1155.4000, -61.956
1155.5000, -61.811
1155.6000, -61.668
1155.7000, -61.749
1155.8000, -61.487
1155.9000, -61.610
1156.0000, -61.382
1156.1000, -61.191
1156.2000, -60.993
1156.3000, -61.159
1156.4000, -60.972
1156.5000, -61.010
1156.6000, -60.717
1156.7000, -60.731
1156.8000, -60.570
1156.9000, -60.715
1157.0000, -60.414
1157.1000, -60.167
1157.2000, -60.255
1157.3000, -60.041
1157.4000, -59.963
1157.5000, -59.769
1157.6000, -59.850
1157.7000, -59.596
1157.8000, -59.442
1157.9000, -59.303
1158.0000, -59.267
1158.1000, -59.138
1158.2000, -59.033
1158.3000, -58.888
1158.4000, -58.764
1158.5000, -58.644
1158.6000, -58.246
1158.7000, -58.360
1158.8000, -58.172
1158.9000, -58.150
1159.0000, -57.792
1159.1000, -57.843
1159.2000, -57.592
1159.3000, -57.494
1159.4000, -57.306
1159.5000, -57.238
1159.6000, -57.026
1159.7000, -56.962
1159.8000, -56.786
1159.9000, -56.589
1160.0000, -56.590
1160.1000, -56.356
1160.2000, -56.261
1160.3000, -55.878
1160.4000, -55.774
1160.5000, -55.474
1160.6000, -55.304
1160.7000, -55.177
1160.8000, -54.919
1160.9000, -54.632
1161.0000, -54.542
1161.1000, -54.137
1161.2000, -54.097
1161.3000, -53.954
1161.4000, -53.746
1161.5000, -53.607
1161.6000, -53.379
1161.7000, -53.329
1161.8000, -53.010
1161.9000, -53.027
1162.0000, -52.603
1162.1000, -52.532
1162.2000, -52.303
1162.3000, -52.188
1162.4000, -52.007
1162.5000, -51.857
1162.6000, -51.869
1162.7000, -51.632
1162.8000, -51.455
1162.9000, -51.268
1163.0000, -51.096
1163.1000, -50.939
1163.2000, -50.868
1163.3000, -50.599
1163.4000, -50.402
1163.5000, -50.200
1163.6000, -50.189
1163.7000, -50.143
1163.8000, -50.051
1163.9000, -49.585
1164.0000, -49.663
1164.1000, -49.591
1164.2000, -49.539
1164.3000, -49.320
1164.4000, -49.262
1164.5000, -49.227
1164.6000, -49.163
1164.7000, -49.307
1164.8000, -48.887
1164.9000, -48.859
1165.0000, -48.840
1165.1000, -48.873
1165.2000, -48.504
1165.3000, -48.756
1165.4000, -48.603
1165.5000, -48.448
1165.6000, -48.357
1165.7000, -48.408
1165.8000, -48.257
1165.9000, -48.107
1166.0000, -48.180
1166.1000, -47.956
1166.2000, -47.769
1166.3000, -47.708
1166.4000, -47.820
1166.5000, -47.395
1166.6000, -47.451
1166.7000, -47.170
1166.8000, -47.068
1166.9000, -47.001
1167.0000, -46.883
1167.1000, -46.592
1167.2000, -46.557
1167.3000, -46.470
1167.4000, -46.394
1167.5000, -46.235
1167.6000, -46.050
1167.7000, -46.236
1167.8000, -45.871
1167.9000, -45.961
1168.0000, -45.850
1168.1000, -45.879
1168.2000, -45.665
1168.3000, -45.710
1168.4000, -45.744
1168.5000, -45.722
1168.6000, -45.428
1168.7000, -45.649
1168.8000, -45.656
1168.9000, -45.470
1169.0000, -45.589
1169.1000, -45.594
1169.2000, -45.625
1169.3000, -45.372
1169.4000, -45.616
1169.5000, -45.514
1169.6000, -45.397
1169.7000, -45.316
1169.8000, -45.474
1169.9000, -45.263
1170.0000, -45.281
1170.1000, -45.305
1170.2000, -45.310
1170.3000, -45.158
1170.4000, -45.281
1170.5000, -45.256
1170.6000, -45.141
1170.7000, -45.244
1170.8000, -45.058
1170.9000, -45.184
1171.0000, -45.028
1171.1000, -45.138
1171.2000, -45.014
1171.3000, -45.101
1171.4000, -44.894
1171.5000, -44.984
1171.6000, -44.771
1171.7000, -44.850
1171.8000, -44.633
1171.9000, -44.724
1172.0000, -44.599
1172.1000, -44.565
1172.2000, -44.764
1172.3000, -44.494
1172.4000, -44.486
1172.5000, -44.566
1172.6000, -44.799
1172.7000, -44.496
1172.8000, -44.617
1172.9000, -44.658
1173.0000, -44.428
1173.1000, -44.390
1173.2000, -44.635
1173.3000, -44.459
1173.4000, -44.343
1173.5000, -44.665
1173.6000, -44.570
1173.7000, -44.694
1173.8000, -44.620
1173.9000, -44.802
1174.0000, -44.629
1174.1000, -45.032
1174.2000, -44.852
1174.3000, -44.969
1174.4000, -44.927
1174.5000, -45.013
1174.6000, -44.916
1174.7000, -44.937
1174.8000, -44.883
1174.9000, -44.789
1175.0000, -44.811
1175.1000, -44.754
1175.2000, -44.885
1175.3000, -44.748
1175.4000, -45.012
1175.5000, -44.640
1175.6000, -44.962
1175.7000, -44.605
1175.8000, -44.711
1175.9000, -44.696
1176.0000, -45.023
1176.1000, -44.890
1176.2000, -44.911
1176.3000, -44.987
1176.4000, -45.082
1176.5000, -45.088
1176.6000, -45.352
1176.7000, -45.501
1176.8000, -45.143
1176.9000, -45.599
1177.0000, -45.328
1177.1000, -45.583
1177.2000, -45.243
1177.3000, -45.662
1177.4000, -45.213
1177.5000, -45.500
1177.6000, -45.156
1177.7000, -45.552
1177.8000, -45.089
1177.9000, -45.276
1178.0000, -44.972
1178.1000, -45.348
1178.2000, -45.151
1178.3000, -45.338
1178.4000, -45.191
1178.5000, -45.472
1178.6000, -45.713
1178.7000, -45.650
1178.8000, -45.983
1178.9000, -45.867
1179.0000, -46.499
1179.1000, -46.393
1179.2000, -46.796
1179.3000, -46.631
1179.4000, -47.373
1179.5000, -47.063
1179.6000, -47.744
1179.7000, -47.709
1179.8000, -48.191
1179.9000, -48.230
1180.0000, -48.650
1180.1000, -48.779
1180.2000, -48.930
1180.3000, -49.322
1180.4000, -49.506
1180.5000, -49.685
1180.6000, -49.656
1180.7000, -49.861
1180.8000, -49.677
1180.9000, -50.301
1181.0000, -49.922
1181.1000, -50.163
1181.2000, -49.854
1181.3000, -50.533
1181.4000, -49.831
1181.5000, -50.184
1181.6000, -50.109
1181.7000, -50.208
1181.8000, -50.260
1181.9000, -50.391
1182.0000, -50.269
1182.1000, -50.228
1182.2000, -50.779
1182.3000, -51.076
1182.4000, -51.141
1182.5000, -51.032
1182.6000, -51.820
1182.7000, -51.854
1182.8000, -52.181
1182.9000, -52.449
1183.0000, -53.252
1183.1000, -53.525
1183.2000, -53.898
1183.3000, -54.064
1183.4000, -54.734
1183.5000, -55.213
1183.6000, -55.677
1183.7000, -55.841
1183.8000, -56.423
1183.9000, -56.881
1184.0000, -57.061
1184.1000, -57.635
1184.2000, -57.936
1184.3000, -58.766
1184.4000, -58.653
1184.5000, -58.823
1184.6000, -59.090
1184.7000, -59.905
1184.8000, -59.865
1184.9000, -60.397
1185.0000, -60.723
1185.1000, -61.183
1185.2000, -61.014
1185.3000, -61.358
1185.4000, -61.642
1185.5000, -61.794
1185.6000, -62.255
1185.7000, -62.388
1185.8000, -62.346
1185.9000, -62.613
1186.0000, -62.851
1186.1000, -62.691
1186.2000, -63.229
1186.3000, -63.447
1186.4000, -63.733
1186.5000, -63.730
1186.6000, -64.092
1186.7000, -64.222
1186.8000, -64.710
1186.9000, -65.033
1187.0000, -65.323
1187.1000, -65.821
1187.2000, -65.883
1187.3000, -66.180
1187.4000, -66.598
1187.5000, -67.370
1187.6000, -67.618
1187.7000, -67.893
1187.8000, -68.173
1187.9000, -68.451
1188.0000, -68.849
1188.1000, -69.148
1188.2000, -69.515
1188.3000, -69.878
1188.4000, -70.461
1188.5000, -70.136
1188.6000, -70.398
1188.7000, -70.923
1188.8000, -70.697
1188.9000, -71.050
1189.0000, -71.230
1189.1000, -71.867
1189.2000, -71.797
1189.3000, -71.986
1189.4000, -72.159
1189.5000, -72.765
1189.6000, -72.326
1189.7000, -72.554
1189.8000, -72.685
1189.9000, -73.303
1190.0000, -72.950
1190.1000, -73.240
1190.2000, -72.889
1190.3000, -74.048
1190.4000, -74.405
1190.5000, -73.647
1190.6000, -74.485
1190.7000, -74.105
1190.8000, -74.759
1190.9000, -74.521
1191.0000, -74.621
1191.1000, -75.182
1191.2000, -75.197
1191.3000, -75.723
1191.4000, -75.558
1191.5000, -75.908
1191.6000, -75.465
1191.7000, -77.237
1191.8000, -76.609
1191.9000, -76.457
1192.0000, -76.660
1192.1000, -77.121
1192.2000, -75.679
1192.3000, -78.326
1192.4000, -79.133
1192.5000, -76.940
1192.6000, -79.218
1192.7000, -75.964
1192.8000, -77.707
1192.9000, -77.343
1193.0000, -77.702
1193.1000, -78.769
1193.2000, -77.442
1193.3000, -77.658
1193.4000, -78.136
1193.5000, -77.605
1193.6000, -77.728
1193.7000, -78.555
1193.8000, -78.650
1193.9000, -78.308
1194.0000, -78.644
1194.1000, -77.350
1194.2000, -79.752
1194.3000, -77.427
1194.4000, -81.070
1194.5000, -79.173
1194.6000, -78.340
1194.7000, -77.373
1194.8000, -77.724
1194.9000, -78.950
1195.0000, -78.855
1195.1000, -78.832
1195.2000, -78.651
1195.3000, -77.844
1195.4000, -78.208
1195.5000, -79.564
1195.6000, -77.998
1195.7000, -79.729
1195.8000, -78.911
1195.9000, -78.036
1196.0000, -79.649
1196.1000, -78.503
1196.2000, -79.455
1196.3000, -78.622
1196.4000, -78.777
1196.5000, -79.594
1196.6000, -78.177
1196.7000, -78.902
1196.8000, -78.891
1196.9000, -78.484
1197.0000, -79.977
1197.1000, -79.304
1197.2000, -78.349
1197.3000, -78.615
1197.4000, -79.115
1197.5000, -80.431
1197.6000, -77.916
1197.7000, -79.299
1197.8000, -78.018
1197.9000, -78.072
1198.0000, -80.721
1198.1000, -77.983
1198.2000, -78.815
1198.3000, -79.368
1198.4000, -78.974
1198.5000, -78.850
1198.6000, -81.100
1198.7000, -78.302
1198.8000, -78.237
1198.9000, -78.338
1199.0000, -79.197
1199.1000, -79.346
1199.2000, -80.089
1199.3000, -78.918
1199.4000, -79.414
1199.5000, -78.437
1199.6000, -79.361
1199.7000, -78.570
1199.8000, -80.384
1199.9000, -77.918
1200.0000, -77.722
1200.1000, -79.481
1200.2000, -79.262
1200.3000, -80.050
1200.4000, -77.126
1200.5000, -78.671
1200.6000, -78.231
1200.7000, -80.240
1200.8000, -80.558
1200.9000, -79.258
1201.0000, -79.421
1201.1000, -78.352
1201.2000, -78.132
1201.3000, -80.113
1201.4000, -77.803
1201.5000, -78.215
1201.6000, -80.007
1201.7000, -79.158
1201.8000, -80.509
1201.9000, -77.574
1202.0000, -81.302
1202.1000, -79.185
1202.2000, -81.028
1202.3000, -77.902
1202.4000, -79.681
1202.5000, -82.517
1202.6000, -84.359
1202.7000, -78.843
1202.8000, -78.275
1202.9000, -82.949
1203.0000, -76.509
1203.1000, -80.919
1203.2000, -78.125
1203.3000, -88.892
1203.4000, -99.359
1203.5000, -77.180
1203.6000, -82.380
1203.7000, -79.154
1203.8000, -82.391
1203.9000, -80.369
1204.0000, -80.502
1204.1000, -80.090
1204.2000, -84.710
1204.3000, -79.004
1204.4000, -80.888
1204.5000, -80.741
1204.6000, -79.636
1204.7000, -86.205
1204.8000, -80.010
1204.9000, -81.897
1205.0000, -81.952
1205.1000, -79.035
1205.2000, -81.555
1205.3000, -83.079
1205.4000, -79.314
1205.5000, -80.706
1205.6000, -84.032
1205.7000, -79.495
1205.8000, -82.043
1205.9000, -80.371
1206.0000, -82.958
1206.1000, -81.127
1206.2000, -81.219
1206.3000, -80.123
1206.4000, -81.630
1206.5000, -83.174
1206.6000, -80.277
1206.7000, -82.213
1206.8000, -80.577
1206.9000, -85.148
1207.0000, -80.321
1207.1000, -80.916
1207.2000, -80.859
1207.3000, -83.952
1207.4000, -81.945
1207.5000, -84.599
1207.6000, -80.264
1207.7000, -83.508
1207.8000, -80.470
1207.9000, -79.078
1208.0000, -85.341
1208.1000, -81.611
1208.2000, -84.338
1208.3000, -85.824
1208.4000, -95.417
1208.5000, -81.139
1208.6000, -79.447
1208.7000, -82.728
1208.8000, -82.221
1208.9000, -82.339
1209.0000, -82.915
1209.1000, -80.638
1209.2000, -81.882
1209.3000, -84.915
1209.4000, -83.041
1209.5000, -83.205
1209.6000, -81.147
1209.7000, -83.086
1209.8000, -81.916
1209.9000, -81.089
1210.0000, -80.837
1210.1000, -83.883
1210.2000, -83.714
1210.3000, -82.935
1210.4000, -85.627
1210.5000, -80.715
1210.6000, -83.164
1210.7000, -82.150
1210.8000, -83.256
1210.9000, -81.636
1211.0000, -82.264
1211.1000, -83.520
1211.2000, -84.314
1211.3000, -81.943
1211.4000, -81.357
1211.5000, -81.898
1211.6000, -82.479
1211.7000, -83.223
1211.8000, -82.248
1211.9000, -84.827
1212.0000, -83.121
1212.1000, -80.441
1212.2000, -81.822
1212.3000, -88.360
1212.4000, -84.329
1212.5000, -84.370
1212.6000, -85.770
1212.7000, -83.294
1212.8000, -81.264
1212.9000, -81.629
1213.0000, -85.128
1213.1000, -85.004
1213.2000, -80.561
1213.3000, -82.496
1213.4000, -85.770
1213.5000, -85.666
1213.6000, -81.775
1213.7000, -83.871
1213.8000, -84.294
1213.9000, -84.199
1214.0000, -81.797
1214.1000, -82.844
1214.2000, -81.648
1214.3000, -86.443
1214.4000, -84.429
1214.5000, -82.007
1214.6000, -82.412
1214.7000, -81.107
1214.8000, -91.041
1214.9000, -81.410
1215.0000, -82.098
1215.1000, -86.012
1215.2000, -84.095
1215.3000, -81.910
1215.4000, -80.391
1215.5000, -81.929
1215.6000, -83.121
1215.7000, -81.992
1215.8000, -81.978
1215.9000, -86.240
1216.0000, -83.319
1216.1000, -79.757
1216.2000, -85.835
1216.3000,-210.000
1216.4000, -88.037
1216.5000, -84.359
1216.6000, -82.211
1216.7000, -80.089
1216.8000, -84.736
1216.9000, -87.541
1217.0000, -82.900
1217.1000, -82.564
1217.2000, -82.110
1217.3000, -82.850
1217.4000, -80.596
1217.5000, -87.928
1217.6000, -79.329
1217.7000,-210.000
1217.8000, -84.517
1217.9000, -79.750
1218.0000, -85.322
1218.1000, -90.175
1218.2000, -83.844
1218.3000, -80.535
1218.4000,-210.000
1218.5000, -82.661
1218.6000, -82.788
1218.7000, -85.334
1218.8000, -81.360
1218.9000, -82.932
1219.0000, -83.384
1219.1000, -85.076
1219.2000, -83.325
1219.3000, -83.593
1219.4000,-210.000
1219.5000, -78.814
1219.6000, -82.354
1219.7000, -81.197
1219.8000, -80.470
1219.9000, -86.591
1220.0000, -90.301
1220.1000, -83.308
1220.2000, -86.019
1220.3000, -84.694
1220.4000, -80.003
1220.5000, -83.280
1220.6000, -85.777
1220.7000, -82.449
1220.8000, -82.718
1220.9000, -82.291
1221.0000, -84.987
1221.1000, -83.279
1221.2000, -80.857
1221.3000, -80.965
1221.4000, -84.477
1221.5000, -80.543
1221.6000, -82.016
1221.7000, -84.516
1221.8000, -90.910
1221.9000, -83.605
1222.0000, -81.353
1222.1000, -82.636
1222.2000, -80.463
1222.3000, -98.676
1222.4000, -81.387
1222.5000, -84.765
1222.6000, -81.627
1222.7000, -85.198
1222.8000, -82.820
1222.9000, -82.693
1223.0000, -83.937
1223.1000, -80.042
1223.2000, -83.215
1223.3000, -81.525
1223.4000, -84.691
1223.5000, -84.016
1223.6000, -82.618
1223.7000, -81.657
1223.8000, -83.852
1223.9000, -82.504
1224.0000, -88.917
1224.1000, -82.251
1224.2000, -82.478
1224.3000, -82.563
1224.4000, -84.399
1224.5000, -81.599
1224.6000, -81.884
1224.7000, -87.898
1224.8000, -83.948
1224.9000, -82.040
1225.0000, -79.756
1225.1000, -83.259
1225.2000, -80.141
1225.3000, -81.193
1225.4000, -91.854
1225.5000, -84.771
1225.6000, -84.778
1225.7000, -81.139
1225.8000, -82.202
1225.9000, -92.809
1226.0000, -81.693
1226.1000, -82.286
1226.2000, -83.515
1226.3000, -85.328
1226.4000, -81.535
1226.5000, -82.687
1226.6000, -91.141
1226.7000, -79.856
1226.8000, -80.262
1226.9000, -83.909
1227.0000, -83.688
1227.1000, -90.608
1227.2000, -81.997
1227.3000, -83.107
1227.4000, -80.757
1227.5000, -82.848
1227.6000, -86.588
1227.7000, -89.568
1227.8000, -81.943
1227.9000, -82.427
1228.0000, -81.545
1228.1000, -81.402
1228.2000, -84.438
1228.3000, -79.670
1228.4000, -83.116
1228.5000,-210.000
1228.6000, -80.830
1228.7000, -81.275
1228.8000, -82.971
1228.9000, -84.934
1229.0000, -82.549
1229.1000, -80.287
1229.2000, -85.034
1229.3000, -82.501
1229.4000, -80.375
1229.5000, -94.665
1229.6000, -82.092
1229.7000, -82.862
1229.8000, -80.066
1229.9000, -80.251
1230.0000, -90.232
1230.1000, -79.260
1230.2000, -80.718
1230.3000, -88.330
1230.4000, -84.014
1230.5000,-210.000
1230.6000, -78.254
1230.7000, -81.523
1230.8000, -88.266
1230.9000, -81.442
1231.0000, -90.067
1231.1000, -82.314
1231.2000, -84.310
1231.3000, -82.110
1231.4000, -78.600
1231.5000, -85.279
1231.6000, -78.214
1231.7000, -88.940
1231.8000, -82.036
1231.9000, -85.150
1232.0000,-210.000
1232.1000, -79.109
1232.2000, -85.307
1232.3000, -80.276
1232.4000,-210.000
1232.5000, -82.500
1232.6000, -80.287
1232.7000,-210.000
1232.8000, -80.346
1232.9000, -79.405
1233.0000, -79.915
1233.1000, -80.715
1233.2000, -84.272
1233.3000, -83.800
1233.4000, -81.636
1233.5000, -81.619
1233.6000, -87.510
1233.7000, -82.436
1233.8000, -89.290
1233.9000, -80.845
1234.0000,-210.000
1234.1000, -79.692
1234.2000, -83.567
1234.3000, -79.065
1234.4000, -91.923
1234.5000,-210.000
1234.6000, -82.359
1234.7000, -78.250
1234.8000, -87.116
1234.9000, -79.872
1235.0000, -83.964
1235.1000, -82.775
1235.2000, -81.680
1235.3000, -81.124
1235.4000, -82.689
1235.5000, -88.025
1235.6000, -82.500
1235.7000, -84.851
1235.8000, -80.446
1235.9000, -86.079
1236.0000, -80.352
1236.1000, -82.405
1236.2000, -90.984
1236.3000, -81.817
1236.4000, -81.511
1236.5000, -82.012
1236.6000, -81.494
1236.7000, -82.333
1236.8000, -81.528
1236.9000, -83.088
1237.0000, -81.615
1237.1000, -80.153
1237.2000, -82.962
1237.3000, -82.201
1237.4000, -90.189
1237.5000, -80.125
1237.6000, -81.646
1237.7000, -81.109
1237.8000, -80.923
1237.9000, -88.214
1238.0000, -85.848
1238.1000, -78.347
1238.2000, -81.972
1238.3000, -80.584
1238.4000, -82.033
1238.5000, -82.721
1238.6000, -81.577
1238.7000, -81.488
1238.8000, -82.143
1238.9000, -86.449
1239.0000, -78.553
1239.1000, -83.382
1239.2000, -81.828
1239.3000, -81.464
1239.4000, -80.104
1239.5000, -83.063
1239.6000, -79.210
1239.7000, -81.950
1239.8000, -79.158
1239.9000, -83.189
1240.0000, -80.427
1240.1000, -82.006
1240.2000, -80.113
1240.3000, -80.452
1240.4000, -81.447
1240.5000, -82.295
1240.6000, -79.894
1240.7000, -80.769
1240.8000, -79.411
1240.9000, -79.731
1241.0000, -80.064
1241.1000,-210.000
1241.2000, -82.008
1241.3000, -79.994
1241.4000, -79.597
1241.5000, -81.388
1241.6000, -79.964
1241.7000, -80.485
1241.8000, -81.864
1241.9000, -78.565
1242.0000, -85.403
1242.1000, -79.639
1242.2000, -78.923
1242.3000, -80.883
1242.4000, -82.579
1242.5000, -81.065
1242.6000, -82.280
1242.7000, -80.835
1242.8000, -81.997
1242.9000, -80.794
1243.0000, -79.634
1243.1000, -93.383
1243.2000, -79.703
1243.3000, -79.514
1243.4000, -85.809
1243.5000, -87.936
1243.6000, -77.746
1243.7000, -81.564
1243.8000, -80.527
1243.9000, -82.924
1244.0000, -79.698
1244.1000, -80.912
1244.2000, -81.028
1244.3000, -81.014
1244.4000,-210.000
1244.5000, -79.202
1244.6000, -79.492
1244.7000, -88.805
1244.8000, -81.380
1244.9000, -84.356
1245.0000, -79.998
1245.1000, -81.297
1245.2000, -79.548
1245.3000, -83.424
1245.4000, -80.832
1245.5000, -79.319
1245.6000, -88.750
1245.7000, -79.314
1245.8000, -85.187
1245.9000, -82.362
1246.0000, -80.014
1246.1000, -80.048
1246.2000, -81.878
1246.3000, -81.395
1246.4000, -84.465
1246.5000, -80.441
1246.6000, -79.036
1246.7000, -80.677
1246.8000, -80.643
1246.9000, -90.039
1247.0000, -87.866
1247.1000, -79.513
1247.2000, -80.922
1247.3000, -80.780
1247.4000, -83.060
1247.5000, -80.369
1247.6000, -89.632
1247.7000, -78.496
1247.8000, -87.369
1247.9000, -85.745
1248.0000, -79.896
1248.1000, -86.200
1248.2000, -80.258
1248.3000, -84.941
1248.4000, -82.402
1248.5000, -81.747
1248.6000, -84.182
1248.7000, -82.071
1248.8000, -82.087
1248.9000, -81.750
1249.0000, -83.657
1249.1000, -83.706
1249.2000, -84.665
1249.3000, -81.468
1249.4000, -81.276
1249.5000, -83.188
1249.6000, -82.138
1249.7000, -82.177
1249.8000, -85.117
1249.9000, -81.681
1250.0000, -79.523
1250.1000, -86.680
1250.2000, -81.488
1250.3000, -82.738
1250.4000, -80.547
1250.5000,-210.000
1250.6000, -79.538
1250.7000, -83.648
1250.8000, -80.414
1250.9000, -84.054
1251.0000, -85.152
1251.1000, -80.821
1251.2000, -85.620
1251.3000,-210.000
1251.4000, -79.666
1251.5000, -82.529
1251.6000, -83.870
1251.7000, -82.052
1251.8000, -79.568
1251.9000, -87.455
1252.0000, -81.533
1252.1000,-210.000
1252.2000, -82.597
1252.3000, -85.948
1252.4000,-210.000
1252.5000, -89.663
1252.6000, -81.290
1252.7000, -82.830
1252.8000, -83.926
1252.9000, -80.501
1253.0000, -83.667
1253.1000, -80.141
1253.2000,-210.000
1253.3000,-101.485
1253.4000, -78.401
1253.5000, -80.783
1253.6000, -81.910
1253.7000, -86.020
1253.8000,-210.000
1253.9000, -84.968
1254.0000, -82.328
1254.1000, -84.652
1254.2000, -82.829
1254.3000, -81.058
1254.4000,-210.000
1254.5000, -81.750
1254.6000, -85.637
1254.7000, -79.949
1254.8000, -95.971
1254.9000, -79.894
1255.0000, -83.851
1255.1000, -82.525
1255.2000, -89.085
1255.3000, -92.905
1255.4000, -80.771
1255.5000, -82.336
1255.6000,-210.000
1255.7000, -81.589
1255.8000, -85.713
1255.9000, -81.103
1256.0000, -89.272
1256.1000, -78.567
1256.2000,-210.000
1256.3000,-210.000
1256.4000, -78.631
1256.5000, -82.076
1256.6000, -81.462
1256.7000,-210.000
1256.8000, -81.402
1256.9000, -87.909
1257.0000, -85.026
1257.1000, -83.345
1257.2000,-210.000
1257.3000, -77.918
1257.4000,-210.000
1257.5000,-210.000
1257.6000, -79.007
1257.7000, -82.782
1257.8000, -82.652
1257.9000,-210.000
1258.0000, -81.664
1258.1000,-210.000
1258.2000, -83.259
1258.3000, -84.593
1258.4000, -87.674
1258.5000, -80.019
1258.6000, -85.363
1258.7000, -83.249
1258.8000, -83.286
1258.9000, -82.256
1259.0000, -83.972
1259.1000, -83.520
1259.2000,-210.000
1259.3000, -81.014
1259.4000, -82.064
1259.5000,-210.000
1259.6000,-210.000
1259.7000, -80.268
1259.8000, -83.457
1259.9000, -79.650
1260.0000, -84.678
1260.1000,-210.000
1260.2000, -83.988
1260.3000, -86.110
1260.4000, -82.118
1260.5000, -80.008
1260.6000,-210.000
1260.7000, -86.419
1260.8000, -85.400
1260.9000, -78.474
1261.0000, -86.060
1261.1000,-210.000
1261.2000, -82.443
1261.3000, -83.816
1261.4000, -83.832
1261.5000, -87.571
1261.6000, -83.548
1261.7000, -82.242
1261.8000, -80.814
1261.9000,-210.000
1262.0000, -84.946
1262.1000, -86.016
1262.2000, -84.026
1262.3000, -79.725
1262.4000, -86.270
1262.5000, -87.752
1262.6000, -81.768
1262.7000, -84.613
1262.8000, -83.159
1262.9000, -88.781
1263.0000, -85.656
1263.1000, -82.029
1263.2000, -85.728
1263.3000, -82.682
1263.4000,-210.000
1263.5000, -87.871
1263.6000, -83.055
1263.7000, -81.371
1263.8000, -84.285
1263.9000, -81.738
1264.0000,-210.000
1264.1000, -83.493
1264.2000, -84.517
1264.3000, -83.843
1264.4000, -84.791
1264.5000, -84.473
1264.6000, -82.898
1264.7000, -83.761
1264.8000, -86.350
1264.9000, -83.682
1265.0000,-210.000
1265.1000, -86.321
1265.2000, -88.024
1265.3000, -86.589
1265.4000, -83.102
1265.5000, -82.249
1265.6000,-210.000
1265.7000, -80.118
1265.8000, -93.587
1265.9000, -86.681
1266.0000, -84.931
1266.1000, -85.125
1266.2000, -86.162
1266.3000, -82.633
1266.4000, -94.847
1266.5000, -80.959
1266.6000, -85.955
1266.7000,-210.000
1266.8000, -82.126
1266.9000, -84.374
1267.0000, -84.703
1267.1000, -84.021
1267.2000, -88.195
1267.3000, -82.294
1267.4000, -87.230
1267.5000, -86.121
1267.6000, -86.172
1267.7000, -85.285
1267.8000, -87.523
1267.9000, -84.655
1268.0000, -91.815
1268.1000, -81.523
1268.2000,-210.000
1268.3000, -81.118
1268.4000,-101.754
1268.5000, -84.113
1268.6000, -81.474
1268.7000, -86.102
1268.8000, -84.268
1268.9000, -81.736
1269.0000, -86.628
1269.1000, -81.720
1269.2000, -86.073
1269.3000, -81.998
1269.4000, -80.731
1269.5000,-210.000
1269.6000,-210.000
1269.7000, -80.051
1269.8000, -81.738
1269.9000, -87.562
1270.0000, -83.578
1270.1000,-210.000
1270.2000, -83.378
1270.3000,-210.000
1270.4000, -79.890
1270.5000, -91.454
1270.6000,-210.000
1270.7000, -87.504
1270.8000, -81.773
1270.9000, -81.792
1271.0000,-210.000
1271.1000, -80.983
1271.2000,-210.000
1271.3000, -83.376
1271.4000, -89.026
1271.5000, -81.285
1271.6000, -96.710
1271.7000, -81.961
1271.8000, -89.163
1271.9000, -88.664
1272.0000, -84.677
1272.1000, -82.951
1272.2000, -83.512
1272.3000, -87.093
1272.4000, -85.406
1272.5000, -82.211
1272.6000, -82.426
1272.7000, -83.141
1272.8000, -81.713
1272.9000, -84.248
1273.0000,-210.000
1273.1000, -76.782
1273.2000, -84.469
1273.3000, -85.173
1273.4000,-210.000
1273.5000,-210.000
1273.6000, -84.797
1273.7000, -80.957
1273.8000, -83.103
1273.9000,-210.000
1274.0000, -84.015
1274.1000, -91.451
1274.2000, -82.786
1274.3000, -81.193
1274.4000, -86.996
1274.5000,-210.000
1274.6000, -80.698
1274.7000, -82.395
1274.8000,-210.000
1274.9000, -95.990
1275.0000, -79.687
1275.1000,-210.000
1275.2000, -80.522
1275.3000, -84.942
1275.4000, -84.424
1275.5000, -90.295
1275.6000, -87.562
1275.7000, -85.929
1275.8000, -86.871
1275.9000, -81.432
1276.0000, -87.156
1276.1000, -85.548
1276.2000, -83.345
1276.3000, -86.467
1276.4000, -83.199
1276.5000,-210.000
1276.6000, -82.217
1276.7000, -82.543
1276.8000, -84.839
1276.9000,-210.000
1277.0000,-210.000
1277.1000, -80.667
1277.2000, -83.527
1277.3000, -84.645
1277.4000,-210.000
1277.5000, -83.337
1277.6000, -92.814
1277.7000, -84.304
1277.8000, -84.167
1277.9000, -85.542
1278.0000, -82.895
1278.1000, -88.906
1278.2000, -86.709
1278.3000, -83.124
1278.4000, -82.272
1278.5000,-210.000
1278.6000, -79.735
1278.7000, -89.607
1278.8000, -87.460
1278.9000, -86.127
1279.0000, -84.390
1279.1000, -84.594
1279.2000, -83.167
1279.3000, -88.811
1279.4000, -82.761
1279.5000, -83.946
1279.6000, -86.998
1279.7000, -83.942
1279.8000, -84.101
1279.9000, -84.350
1280.0000, -87.189
1280.1000, -85.121
1280.2000, -87.445
1280.3000, -81.236
1280.4000, -85.212
1280.5000, -80.768
1280.6000,-210.000
1280.7000, -82.229
1280.8000, -86.001
1280.9000, -86.854
1281.0000, -88.689
1281.1000, -84.987
1281.2000, -85.950
1281.3000, -83.599
1281.4000, -84.681
1281.5000, -84.325
1281.6000, -84.943
1281.7000, -85.951
1281.8000, -82.276
1281.9000, -81.447
1282.0000, -89.628
1282.1000, -80.870
1282.2000,-210.000
1282.3000,-210.000
1282.4000, -80.952
1282.5000, -80.601
1282.6000, -81.553
1282.7000,-210.000
1282.8000, -80.275
1282.9000,-210.000
1283.0000, -83.470
1283.1000, -83.990
1283.2000, -81.758
1283.3000, -95.238
1283.4000, -91.298
1283.5000, -83.193
1283.6000, -85.934
1283.7000, -81.777
1283.8000, -85.003
1283.9000, -85.562
1284.0000, -85.691
1284.1000, -86.240
1284.2000, -81.070
1284.3000, -88.403
1284.4000, -83.279
1284.5000, -86.032
1284.6000, -82.473
1284.7000, -86.168
1284.8000, -82.522
1284.9000, -84.076
1285.0000, -84.819
1285.1000, -90.421
1285.2000, -83.614
1285.3000, -83.176
1285.4000, -85.623
1285.5000, -84.711
1285.6000, -90.115
1285.7000, -86.141
1285.8000, -82.821
1285.9000, -88.550
1286.0000, -83.078
1286.1000,-210.000
1286.2000, -87.776
1286.3000, -80.226
1286.4000, -97.469
1286.5000, -82.118
1286.6000, -86.173
1286.7000, -82.626
1286.8000, -82.912
1286.9000, -92.506
1287.0000, -83.369
1287.1000, -82.274
1287.2000, -84.638
1287.3000, -89.424
1287.4000, -84.257
1287.5000, -84.753
1287.6000, -79.608
1287.7000, -86.167
1287.8000, -85.060
1287.9000, -82.987
1288.0000, -83.458
1288.1000, -84.103
1288.2000, -88.129
1288.3000, -88.611
1288.4000, -89.249
1288.5000, -92.995
1288.6000, -81.878
1288.7000, -89.060
1288.8000, -94.594
1288.9000, -84.183
1289.0000, -91.949
1289.1000,-210.000
1289.2000, -80.134
1289.3000, -82.589
1289.4000, -83.904
1289.5000, -82.240
1289.6000, -86.636
1289.7000, -86.898
1289.8000, -81.034
1289.9000, -86.266
1290.0000, -84.898
1290.1000, -88.417
1290.2000, -82.283
1290.3000, -81.272
1290.4000, -92.146
1290.5000, -82.084
1290.6000, -87.660
1290.7000, -83.346
1290.8000, -83.343
1290.9000, -89.649
1291.0000, -84.457
1291.1000, -81.671
1291.2000, -93.672
1291.3000, -81.806
1291.4000, -94.827
1291.5000, -93.867
1291.6000, -90.836
1291.7000, -79.673
1291.8000,-210.000
1291.9000, -86.248
1292.0000, -83.543
1292.1000, -84.429
1292.2000, -83.611
1292.3000, -84.060
1292.4000, -91.120
1292.5000, -81.958
1292.6000, -84.393
1292.7000, -84.554
1292.8000, -82.988
1292.9000, -85.751
1293.0000,-210.000
1293.1000,-101.996
1293.2000, -84.647
1293.3000, -95.353
1293.4000, -85.585
1293.5000, -83.211
1293.6000, -87.884
1293.7000, -82.238
1293.8000, -87.498
1293.9000, -88.201
1294.0000, -85.586
1294.1000, -81.941
1294.2000, -83.892
1294.3000, -85.958
1294.4000, -85.109
1294.5000, -85.677
1294.6000, -82.710
1294.7000, -89.056
1294.8000, -87.193
1294.9000, -85.483
1295.0000, -81.765
1295.1000, -82.097
1295.2000, -83.249
1295.3000, -84.979
1295.4000,-210.000
1295.5000, -81.283
1295.6000, -83.929
1295.7000,-210.000
1295.8000, -93.344
1295.9000, -81.088
1296.0000, -84.429
1296.1000, -83.938
1296.2000, -83.600
1296.3000, -86.762
1296.4000, -82.208
1296.5000, -84.882
1296.6000, -85.245
1296.7000, -87.739
1296.8000, -82.940
1296.9000, -84.729
1297.0000, -82.891
1297.1000, -83.544
1297.2000,-210.000
1297.3000, -88.543
1297.4000, -81.637
1297.5000, -84.064
1297.6000, -83.898
1297.7000, -83.828
1297.8000, -85.300
1297.9000, -83.585
1298.0000,-210.000
1298.1000, -83.035
1298.2000, -84.274
1298.3000, -83.064
1298.4000, -85.373
1298.5000, -85.439
1298.6000, -80.785
1298.7000, -81.022
1298.8000,-210.000
1298.9000, -81.585
1299.0000, -87.049
1299.1000, -81.412
1299.2000,-210.000
1299.3000, -83.725
1299.4000, -81.333
1299.5000,-210.000
1299.6000, -83.616
1299.7000, -81.652
1299.8000, -87.378
1299.9000, -85.960
1300.0000, -86.458
1300.1000, -86.186
1300.2000, -81.608
1300.3000, -86.682
1300.4000, -87.001
1300.5000, -81.859
1300.6000, -82.978
1300.7000, -91.873
1300.8000, -82.446
1300.9000, -94.407
1301.0000, -88.167
1301.1000, -82.760
1301.2000, -82.719
1301.3000, -88.620
1301.4000, -83.503
1301.5000, -86.638
1301.6000, -81.557
1301.7000, -86.425
1301.8000, -82.633
1301.9000, -82.793
1302.0000, -84.523
1302.1000, -83.980
1302.2000, -82.002
1302.3000, -89.189
1302.4000, -83.289
1302.5000, -86.143
1302.6000,-210.000
1302.7000, -85.268
1302.8000, -83.896
1302.9000,-210.000
1303.0000, -77.839
1303.1000,-210.000
1303.2000, -83.855
1303.3000, -84.006
1303.4000, -82.651
1303.5000,-210.000
1303.6000, -84.169
1303.7000,-210.000
1303.8000, -82.514
1303.9000, -84.888
1304.0000, -82.702
1304.1000, -90.564
1304.2000, -82.499
1304.3000, -82.541
1304.4000,-210.000
1304.5000, -84.007
1304.6000, -88.722
1304.7000, -86.766
1304.8000, -81.983
1304.9000, -84.867
1305.0000, -88.251
1305.1000, -84.134
1305.2000, -84.605
1305.3000, -83.230
1305.4000, -85.177
1305.5000, -84.231
1305.6000, -83.841
1305.7000, -83.905
1305.8000,-210.000
1305.9000, -84.725
1306.0000, -88.783
1306.1000, -86.131
1306.2000, -81.543
1306.3000, -87.301
1306.4000, -80.932
1306.5000,-210.000
1306.6000, -82.983
1306.7000, -84.434
1306.8000, -84.886
1306.9000, -91.977
1307.0000, -86.491
1307.1000, -83.181
1307.2000, -82.540
1307.3000, -83.888
1307.4000, -83.061
1307.5000,-210.000
1307.6000, -83.321
1307.7000, -81.757
1307.8000, -83.891
1307.9000, -85.714
1308.0000, -86.425
1308.1000, -84.350
1308.2000, -86.026
1308.3000, -86.214
1308.4000,-210.000
1308.5000, -86.290
1308.6000, -83.873
1308.7000, -87.984
1308.8000, -80.216
1308.9000, -89.078
1309.0000, -84.056
1309.1000, -89.393
1309.2000, -84.553
1309.3000, -98.555
1309.4000, -80.306
1309.5000, -85.768
1309.6000,-103.640
1309.7000, -81.371
1309.8000, -87.007
1309.9000, -82.176
1310.0000, -86.181
1310.1000, -84.655
1310.2000, -84.379
1310.3000, -86.667
1310.4000, -87.658
1310.5000, -81.827
1310.6000, -84.472
1310.7000, -82.555
1310.8000,-210.000
1310.9000, -81.488
1311.0000,-210.000
1311.1000, -95.060
1311.2000, -82.565
1311.3000, -81.592
1311.4000, -85.260
1311.5000,-210.000
1311.6000, -86.789
1311.7000, -89.871
1311.8000, -85.925
1311.9000, -83.909
1312.0000, -84.164
1312.1000, -84.267
1312.2000, -83.494
1312.3000, -84.049
1312.4000,-210.000
1312.5000, -83.483
1312.6000, -89.197
1312.7000, -82.393
1312.8000, -84.686
1312.9000, -86.365
1313.0000, -81.624
1313.1000, -86.733
1313.2000, -86.166
1313.3000,-102.662
1313.4000, -86.361
1313.5000, -85.188
1313.6000, -82.142
1313.7000, -83.231
1313.8000, -82.234
1313.9000, -87.086
1314.0000, -84.986
1314.1000, -82.578
1314.2000, -91.271
1314.3000, -83.105
1314.4000, -94.393
1314.5000, -83.031
1314.6000, -94.596
1314.7000, -84.314
1314.8000, -82.311
1314.9000, -85.298
1315.0000,-210.000
1315.1000, -84.373
1315.2000, -84.882
1315.3000, -83.895
1315.4000,-210.000
1315.5000, -85.520
1315.6000, -84.796
1315.7000, -83.882
1315.8000, -83.785
1315.9000, -83.354
1316.0000, -82.857
1316.1000, -92.282
1316.2000, -82.664
1316.3000, -84.002
1316.4000, -84.123
1316.5000, -85.849
1316.6000, -81.830
1316.7000, -84.262
1316.8000, -87.158
1316.9000, -89.899
1317.0000, -83.661
1317.1000, -83.647
1317.2000, -89.540
1317.3000, -82.623
1317.4000, -92.465
1317.5000, -83.175
1317.6000, -82.378
1317.7000, -83.052
1317.8000, -84.349
1317.9000, -95.462
1318.0000, -79.989
1318.1000,-210.000
1318.2000, -82.218
1318.3000, -81.449
1318.4000, -81.938
1318.5000, -80.532
1318.6000, -82.320
1318.7000, -80.620
1318.8000, -81.263
1318.9000, -82.546
1319.0000, -79.725
1319.1000, -80.417
1319.2000, -79.506
1319.3000, -79.111
1319.4000, -79.327
1319.5000, -79.062
1319.6000, -79.595
1319.7000, -78.931
1319.8000, -78.817
1319.9000, -79.423
1320.0000, -80.149
1320.1000, -82.499
1320.2000, -80.714
1320.3000, -84.738
1320.4000, -82.216
1320.5000, -81.140
1320.6000, -78.195
1320.7000,-210.000
1320.8000, -80.331
1320.9000, -80.632
1321.0000,-210.000
1321.1000, -82.619
1321.2000, -82.218
1321.3000, -80.346
1321.4000, -83.356
1321.5000, -93.430
1321.6000, -81.127
1321.7000,-210.000
1321.8000, -84.582
1321.9000, -81.043
1322.0000, -86.159
1322.1000,-210.000
1322.2000, -83.171
1322.3000, -83.455
1322.4000, -84.040
1322.5000, -83.602
1322.6000, -83.603
1322.7000, -85.267
1322.8000, -82.946
1322.9000, -84.206
1323.0000, -89.794
1323.1000, -83.816
1323.2000, -89.802
1323.3000, -82.937
1323.4000, -85.301
1323.5000, -83.886
1323.6000, -84.455
1323.7000, -82.736
1323.8000, -82.898
1323.9000, -82.576
1324.0000,-210.000
1324.1000, -83.378
1324.2000, -84.996
1324.3000, -87.145
1324.4000, -83.982
1324.5000, -83.497
1324.6000, -91.679
1324.7000, -92.663
1324.8000, -82.636
1324.9000, -83.480
1325.0000, -86.643
1325.1000, -92.496
1325.2000, -87.380
1325.3000, -90.295
1325.4000, -82.864
1325.5000, -85.006
1325.6000, -88.310
1325.7000, -84.781
1325.8000, -83.438
1325.9000, -85.028
1326.0000, -82.387
1326.1000, -84.597
1326.2000,-210.000
1326.3000, -83.413
1326.4000, -86.918
1326.5000, -85.781
1326.6000, -82.167
1326.7000,-210.000
1326.8000, -85.467
1326.9000, -83.837
1327.0000, -87.761
1327.1000, -81.570
1327.2000, -88.608
1327.3000, -89.621
1327.4000, -85.177
1327.5000, -86.989
1327.6000, -86.669
1327.7000, -84.610
1327.8000, -87.251
1327.9000, -82.762
1328.0000, -85.123
1328.1000, -89.950
1328.2000,-210.000
1328.3000, -82.649
1328.4000, -82.766
1328.5000, -85.640
1328.6000, -85.147
1328.7000, -85.815
1328.8000, -84.106
1328.9000,-210.000
1329.0000, -83.831
1329.1000, -82.222
1329.2000, -82.987
1329.3000, -87.964
1329.4000, -82.489
1329.5000, -86.958
1329.6000, -87.243
1329.7000, -83.842
1329.8000, -84.140
1329.9000, -85.869
1330.0000, -86.201
1330.1000, -83.746
1330.2000, -81.472
1330.3000, -85.880
1330.4000, -85.304
1330.5000, -90.459
1330.6000, -83.219
1330.7000, -86.638
1330.8000, -82.005
1330.9000, -86.976
1331.0000, -82.409
1331.1000, -85.251
1331.2000, -87.476
1331.3000, -83.137
1331.4000, -87.996
1331.5000, -90.116
1331.6000, -83.708
1331.7000, -84.808
1331.8000, -85.992
1331.9000, -83.054
1332.0000, -85.034
1332.1000, -82.177
1332.2000, -95.169
1332.3000, -83.960
1332.4000, -83.579
1332.5000, -84.155
1332.6000, -84.302
1332.7000, -90.013
1332.8000, -83.360
1332.9000, -85.565
1333.0000, -81.429
1333.1000, -81.628
1333.2000, -85.077
1333.3000, -85.316
1333.4000, -84.143
1333.5000, -81.946
1333.6000, -82.068
1333.7000, -84.379
1333.8000, -88.226
1333.9000, -81.587
1334.0000, -82.303
1334.1000, -79.387
1334.2000, -85.263
1334.3000, -82.781
1334.4000, -81.017
1334.5000, -81.274
1334.6000, -80.943
1334.7000, -80.028
1334.8000, -82.743
1334.9000, -80.679
1335.0000, -82.658
1335.1000, -79.500
1335.2000, -82.298
1335.3000, -82.187
1335.4000, -78.730
1335.5000, -90.949
1335.6000, -80.353
1335.7000, -80.507
1335.8000, -80.404
1335.9000, -78.985
1336.0000, -80.481
1336.1000, -85.865
1336.2000, -95.874
1336.3000, -80.953
1336.4000, -80.410
1336.5000, -83.800
1336.6000, -83.565
1336.7000, -85.283
1336.8000, -85.835
1336.9000, -82.358
1337.0000, -83.179
1337.1000, -85.524
1337.2000, -82.590
1337.3000, -81.683
1337.4000, -81.842
1337.5000, -86.079
1337.6000, -81.724
1337.7000, -82.342
1337.8000, -80.626
1337.9000, -81.453
1338.0000, -81.614
1338.1000, -79.526
1338.2000, -83.091
1338.3000,-210.000
1338.4000, -78.064
1338.5000, -82.926
1338.6000, -79.092
1338.7000, -80.048
1338.8000, -79.201
1338.9000, -78.385
1339.0000, -79.124
1339.1000, -78.041
1339.2000, -78.810
1339.3000, -79.464
1339.4000, -82.533
1339.5000, -80.651
1339.6000, -81.133
1339.7000, -78.541
1339.8000, -87.399
1339.9000, -79.500
1340.0000, -82.979
1340.1000, -86.716
1340.2000, -81.065
1340.3000, -78.676
1340.4000,-210.000
1340.5000, -79.940
1340.6000, -82.733
1340.7000, -81.247
1340.8000, -88.471
1340.9000, -81.786
1341.0000, -80.396
1341.1000, -80.520
1341.2000, -87.626
1341.3000, -84.303
1341.4000, -81.288
1341.5000, -84.512
1341.6000, -79.657
1341.7000, -81.373
1341.8000, -81.759
1341.9000, -79.953
1342.0000, -82.202
1342.1000, -85.337
1342.2000, -81.162
1342.3000, -83.251
1342.4000, -81.775
1342.5000, -87.237
1342.6000, -82.647
1342.7000, -86.593
1342.8000, -81.152
1342.9000, -83.521
1343.0000, -85.092
1343.1000, -84.490
1343.2000, -88.748
1343.3000, -83.906
1343.4000, -83.781
1343.5000, -81.016
1343.6000, -82.482
1343.7000,-105.057
1343.8000, -81.043
1343.9000, -85.961
1344.0000, -84.523
1344.1000, -82.702
1344.2000, -84.330
1344.3000,-210.000
1344.4000, -80.145
1344.5000,-210.000
1344.6000, -81.008
1344.7000, -89.853
1344.8000, -85.260
1344.9000, -90.524
1345.0000, -83.932
1345.1000, -84.581
1345.2000, -86.711
1345.3000, -85.348
1345.4000, -84.843
1345.5000, -86.870
1345.6000, -86.204
1345.7000, -83.041
1345.8000, -83.441
1345.9000, -84.042
1346.0000, -86.692
1346.1000, -84.647
1346.2000, -88.111
1346.3000, -84.658
1346.4000, -86.913
1346.5000, -83.150
1346.6000, -84.827
1346.7000, -89.063
1346.8000, -86.338
1346.9000, -89.559
1347.0000, -82.379
1347.1000, -83.670
1347.2000, -81.589
1347.3000,-210.000
1347.4000, -82.667
1347.5000, -90.852
1347.6000, -83.120
1347.7000, -84.104
1347.8000, -82.964
1347.9000, -85.454
1348.0000,-210.000
1348.1000, -84.860
1348.2000, -82.058
1348.3000, -87.568
1348.4000, -87.526
1348.5000, -88.250
1348.6000, -83.827
1348.7000, -80.171
1348.8000,-210.000
1348.9000, -83.926
1349.0000,-210.000
1349.1000,-210.000
1349.2000, -85.302
1349.3000, -85.755
1349.4000, -83.487
1349.5000, -84.406
1349.6000, -87.461
1349.7000, -82.766
1349.8000, -88.121
1349.9000, -94.970
1350.0000, -82.873
1350.1000, -82.642
1350.2000,-210.000
1350.3000, -80.228
1350.4000,-210.000
1350.5000, -84.727
1350.6000, -83.654
1350.7000, -84.351
1350.8000, -83.665
1350.9000, -86.922
1351.0000, -89.532
1351.1000, -84.192
1351.2000, -88.853
1351.3000, -86.176
1351.4000, -90.802
1351.5000, -83.363
1351.6000, -85.707
1351.7000, -82.489
1351.8000, -85.337
1351.9000,-210.000
1352.0000, -83.058
1352.1000,-210.000
1352.2000, -82.419
1352.3000, -86.050
1352.4000, -90.118
1352.5000, -81.812
1352.6000, -80.792
1352.7000, -89.005
1352.8000,-210.000
1352.9000,-210.000
1353.0000, -81.751
1353.1000, -88.999
1353.2000, -88.795
1353.3000, -85.219
1353.4000, -84.459
1353.5000, -82.984
1353.6000, -82.383
1353.7000, -85.297
1353.8000, -83.788
1353.9000, -84.195
1354.0000, -87.250
1354.1000, -82.330
1354.2000, -82.412
1354.3000, -87.039
1354.4000, -85.592
1354.5000, -82.137
1354.6000, -83.414
1354.7000, -81.265
1354.8000, -90.140
1354.9000, -85.203
1355.0000, -80.501
1355.1000, -81.417
1355.2000, -91.794
1355.3000, -84.850
1355.4000, -83.418
1355.5000, -81.947
1355.6000, -93.456
1355.7000, -86.614
1355.8000, -80.251
1355.9000, -82.093
1356.0000, -83.878
1356.1000, -79.674
1356.2000,-210.000
1356.3000, -82.533
1356.4000, -83.920
1356.5000, -81.018
1356.6000, -81.398
1356.7000, -82.555
1356.8000, -78.907
1356.9000, -86.124
1357.0000, -80.770
1357.1000, -80.329
1357.2000, -81.677
1357.3000, -80.693
1357.4000, -79.018
1357.5000, -82.038
1357.6000, -80.419
1357.7000, -81.038
1357.8000, -80.231
1357.9000, -80.063
1358.0000, -83.854
1358.1000, -81.452
1358.2000, -84.401
1358.3000,-210.000
1358.4000, -80.614
1358.5000, -82.646
1358.6000, -81.747
1358.7000, -81.995
1358.8000, -89.941
1358.9000, -82.921
1359.0000, -86.018
1359.1000, -82.960
1359.2000, -84.630
1359.3000, -84.676
1359.4000, -83.060
1359.5000, -86.820
1359.6000, -85.042
1359.7000, -83.038
1359.8000, -84.811
1359.9000, -89.210
1360.0000, -83.884
1360.1000, -86.152
1360.2000, -82.878
1360.3000, -83.589
1360.4000, -85.319
1360.5000, -84.634
1360.6000, -83.013
1360.7000, -85.070
1360.8000, -83.159
1360.9000, -83.441
1361.0000, -83.240
1361.1000, -83.664
1361.2000, -90.756
1361.3000, -92.536
1361.4000, -82.886
1361.5000, -83.170
1361.6000, -86.173
1361.7000,-210.000
1361.8000, -84.413
1361.9000, -83.947
1362.0000, -84.462
1362.1000, -83.357
1362.2000, -93.870
1362.3000, -85.404
1362.4000, -86.881
1362.5000, -82.914
1362.6000, -83.906
1362.7000, -85.308
1362.8000, -82.504
1362.9000, -95.884
1363.0000, -84.363
1363.1000, -86.582
1363.2000, -85.871
1363.3000, -84.378
1363.4000, -85.960
1363.5000, -89.841
1363.6000, -91.349
1363.7000, -81.939
1363.8000, -80.802
1363.9000, -86.275
1364.0000,-210.000
1364.1000, -82.773
1364.2000,-210.000
1364.3000, -84.370
1364.4000, -85.222
1364.5000, -87.401
1364.6000, -84.811
1364.7000, -81.388
1364.8000, -88.236
1364.9000, -85.756
1365.0000, -89.379
1365.1000, -85.122
1365.2000, -83.603
1365.3000, -87.085
1365.4000, -82.386
1365.5000, -86.709
1365.6000, -82.536
1365.7000, -88.345
1365.8000, -82.023
1365.9000, -85.848
1366.0000,-210.000
1366.1000, -82.730
1366.2000, -84.225
1366.3000, -85.665
1366.4000, -89.450
1366.5000, -82.565
1366.6000, -96.724
1366.7000, -84.834
1366.8000, -86.939
1366.9000, -84.185
1367.0000, -85.808
1367.1000, -81.590
1367.2000, -86.775
1367.3000, -85.352
1367.4000, -83.761
1367.5000, -83.031
1367.6000, -88.971
1367.7000, -86.094
1367.8000, -83.165
1367.9000, -94.599
1368.0000, -84.166
1368.1000, -91.842
1368.2000, -84.893
1368.3000, -84.874
1368.4000, -84.731
1368.5000, -83.978
1368.6000, -92.764
1368.7000, -84.494
1368.8000, -83.161
1368.9000,-101.057
1369.0000, -82.809
1369.1000, -85.484
1369.2000,-210.000
1369.3000, -84.818
1369.4000, -84.976
1369.5000,-210.000
1369.6000, -81.655
1369.7000, -86.511
1369.8000,-210.000
1369.9000, -86.074
1370.0000, -83.044
1370.1000, -84.149
1370.2000,-210.000
1370.3000, -86.225
1370.4000, -85.854
1370.5000, -85.540
1370.6000, -84.496
1370.7000, -84.275
1370.8000, -87.901
1370.9000, -85.094
1371.0000, -89.429
1371.1000, -84.140
1371.2000, -81.608
1371.3000, -89.081
1371.4000, -82.221
1371.5000, -85.255
1371.6000, -82.998
1371.7000,-210.000
1371.8000, -83.472
1371.9000, -87.373
1372.0000, -81.559
1372.1000, -82.963
1372.2000, -86.507
1372.3000, -87.564
1372.4000, -92.720
1372.5000, -83.738
1372.6000, -83.142
1372.7000, -95.042
1372.8000, -83.152
1372.9000, -86.407
1373.0000, -83.821
1373.1000, -84.962
1373.2000, -93.643
1373.3000, -89.062
1373.4000, -85.176
1373.5000, -82.048
1373.6000, -85.688
1373.7000, -85.636
1373.8000, -86.633
1373.9000, -88.836
1374.0000, -81.965
1374.1000, -82.129
1374.2000, -85.370
1374.3000, -85.311
1374.4000, -86.137
1374.5000, -97.882
1374.6000, -83.412
1374.7000, -83.777
1374.8000,-210.000
1374.9000,-109.636
1375.0000, -82.618
1375.1000, -84.195
1375.2000, -84.813
1375.3000, -85.662
1375.4000, -84.191
1375.5000, -86.189
1375.6000, -85.419
1375.7000, -84.859
1375.8000, -85.196
1375.9000, -83.402
1376.0000, -83.911
1376.1000, -83.986
1376.2000, -89.187
1376.3000, -84.544
1376.4000, -83.125
1376.5000, -86.013
1376.6000, -90.259
1376.7000, -81.791
1376.8000, -85.297
1376.9000,-210.000
1377.0000, -88.739
1377.1000, -84.075
1377.2000, -83.548
1377.3000, -85.263
1377.4000, -91.096
1377.5000, -86.250
1377.6000, -85.119
1377.7000, -86.246
1377.8000, -84.453
1377.9000, -92.381
1378.0000, -82.923
1378.1000, -85.657
1378.2000, -87.806
1378.3000, -85.705
1378.4000, -87.826
1378.5000, -81.982
1378.6000, -86.393
1378.7000, -85.831
1378.8000, -86.211
1378.9000, -84.101
1379.0000, -93.144
1379.1000, -83.219
1379.2000, -83.102
1379.3000,-210.000
1379.4000, -82.747
1379.5000, -87.761
1379.6000, -83.714
1379.7000, -88.356
1379.8000, -83.817
1379.9000, -86.928
1380.0000, -83.876
1380.1000, -86.402
1380.2000, -84.996
1380.3000, -86.868
1380.4000, -83.568
1380.5000, -84.751
1380.6000, -87.400
1380.7000, -87.985
1380.8000, -83.454
1380.9000, -84.372
1381.0000, -91.502
1381.1000, -85.645
1381.2000, -80.657
1381.3000,-210.000
1381.4000, -94.305
1381.5000, -83.308
1381.6000, -83.583
1381.7000, -82.250
1381.8000, -80.968
1381.9000,-210.000
1382.0000, -80.001
1382.1000, -81.858
1382.2000, -84.744
1382.3000, -86.586
1382.4000, -84.939
1382.5000, -93.720
1382.6000,-210.000
1382.7000, -82.871
1382.8000, -85.558
1382.9000, -86.071
1383.0000, -89.874
1383.1000, -86.745
1383.2000, -80.135
1383.3000, -87.509
1383.4000, -85.816
1383.5000, -84.139
1383.6000, -81.217
1383.7000,-210.000
1383.8000, -85.228
1383.9000, -84.383
1384.0000, -84.634
1384.1000,-210.000
1384.2000, -85.218
1384.3000, -83.060
1384.4000, -85.279
1384.5000, -85.829
1384.6000, -81.811
1384.7000, -92.803
1384.8000, -87.067
1384.9000, -84.717
1385.0000, -85.438
1385.1000, -82.845
1385.2000, -84.993
1385.3000, -84.029
1385.4000,-210.000
1385.5000, -90.090
1385.6000, -82.487
1385.7000, -92.573
1385.8000, -83.214
1385.9000,-210.000
1386.0000, -87.686
1386.1000, -85.196
1386.2000, -83.053
1386.3000, -83.055
1386.4000, -85.947
1386.5000, -84.210
1386.6000, -81.738
1386.7000,-210.000
1386.8000,-210.000
1386.9000, -86.418
1387.0000,-210.000
1387.1000, -83.930
1387.2000,-210.000
1387.3000, -83.436
1387.4000, -83.097
1387.5000, -89.604
1387.6000, -82.882
1387.7000, -88.871
1387.8000, -84.317
1387.9000, -88.510
1388.0000, -86.335
1388.1000, -92.188
1388.2000, -81.056
1388.3000, -86.373
1388.4000, -89.980
1388.5000, -90.653
1388.6000, -80.709
1388.7000, -88.032
1388.8000, -86.456
1388.9000, -88.466
1389.0000, -85.390
1389.1000, -85.042
1389.2000, -82.710
1389.3000, -82.877
1389.4000, -84.625
1389.5000,-210.000
1389.6000, -77.369
1389.7000,-210.000
1389.8000, -85.651
1389.9000, -81.534
1390.0000, -86.833
1390.1000, -81.673
1390.2000,-210.000
1390.3000, -85.303
1390.4000, -83.669
1390.5000, -85.578
1390.6000,-210.000
1390.7000, -89.606
1390.8000, -87.198
1390.9000, -81.769
1391.0000, -85.515
1391.1000,-210.000
1391.2000, -91.458
1391.3000, -83.689
1391.4000, -80.349
1391.5000,-210.000
1391.6000,-210.000
1391.7000, -79.670
1391.8000, -84.206
1391.9000, -85.334
1392.0000, -83.344
1392.1000,-210.000
1392.2000, -83.210
1392.3000, -89.671
1392.4000, -86.550
1392.5000, -84.749
1392.6000, -89.353
1392.7000, -81.958
1392.8000, -87.737
1392.9000,-210.000
1393.0000, -83.631
1393.1000, -83.004
1393.2000, -83.385
1393.3000, -84.513
1393.4000, -84.512
1393.5000,-210.000
1393.6000, -83.349
1393.7000, -84.924
1393.8000, -87.727
1393.9000, -85.007
1394.0000, -81.391
1394.1000, -91.572
1394.2000, -85.543
1394.3000, -84.267
1394.4000, -83.257
1394.5000, -91.720
1394.6000, -84.238
1394.7000, -83.328
1394.8000, -86.436
1394.9000, -90.016
1395.0000, -81.491
1395.1000, -89.548
1395.2000, -85.011
1395.3000, -84.098
1395.4000, -85.874
1395.5000, -85.317
1395.6000, -85.502
1395.7000, -88.940
1395.8000, -84.017
1395.9000, -84.200
1396.0000, -82.590
1396.1000, -88.752
1396.2000, -87.933
1396.3000, -82.674
1396.4000, -84.049
1396.5000, -87.244
1396.6000, -82.395
1396.7000, -83.464
1396.8000, -84.109
1396.9000, -84.147
1397.0000, -87.218
1397.1000, -84.140
1397.2000, -91.124
1397.3000, -83.104
1397.4000, -86.638
1397.5000, -92.837
1397.6000, -81.501
1397.7000, -85.053
1397.8000, -85.559
1397.9000, -82.576
1398.0000, -90.095
1398.1000,-210.000
1398.2000, -85.356
1398.3000, -83.015
1398.4000, -87.237
1398.5000, -81.570
1398.6000, -82.802
1398.7000, -87.202
1398.8000, -92.655
1398.9000, -82.508
1399.0000, -83.736
1399.1000, -87.183
1399.2000, -86.359
1399.3000, -81.726
1399.4000,-210.000
1399.5000, -86.600
1399.6000, -84.418
1399.7000, -90.664
1399.8000, -82.016
1399.9000, -85.292
1400.0000, -84.880
1400.1000,-210.000
1400.2000, -82.823
1400.3000, -83.399
1400.4000, -81.086
1400.5000, -85.921
1400.6000, -84.544
1400.7000, -83.279
1400.8000, -83.349
1400.9000, -84.175
1401.0000, -78.968
1401.1000,-210.000
1401.2000, -83.075
1401.3000, -91.611
1401.4000, -83.738
1401.5000, -88.616
1401.6000, -80.855
1401.7000, -87.845
1401.8000, -99.070
1401.9000, -87.068
1402.0000, -83.282
1402.1000, -82.992
1402.2000, -83.278
1402.3000, -80.795
1402.4000,-210.000
1402.5000, -86.619
1402.6000, -81.640
1402.7000, -89.354
1402.8000, -81.652
1402.9000, -84.922
1403.0000,-210.000
1403.1000, -82.948
1403.2000,-210.000
1403.3000, -81.921
1403.4000, -83.278
1403.5000, -93.318
1403.6000, -84.282
1403.7000, -82.395
1403.8000, -83.415
1403.9000, -87.177
1404.0000, -87.526
1404.1000, -83.394
1404.2000, -83.674
1404.3000, -86.181
1404.4000, -87.317
1404.5000, -85.095
1404.6000, -83.867
1404.7000, -83.925
1404.8000, -82.581
1404.9000, -91.938
1405.0000, -83.058
1405.1000, -81.923
1405.2000, -90.468
1405.3000, -84.820
1405.4000, -83.172
1405.5000, -83.074
1405.6000, -81.500
1405.7000, -84.528
1405.8000, -89.775
1405.9000, -82.234
1406.0000, -83.729
1406.1000, -85.058
1406.2000, -90.842
1406.3000, -83.308
1406.4000, -83.993
1406.5000, -96.380
1406.6000, -82.177
1406.7000, -82.496
1406.8000,-210.000
1406.9000, -94.713
1407.0000, -80.129
1407.1000,-210.000
1407.2000, -87.511
1407.3000, -83.895
1407.4000, -82.071
1407.5000, -91.111
1407.6000, -86.692
1407.7000, -86.925
1407.8000,-210.000
1407.9000, -80.457
1408.0000, -84.657
1408.1000, -81.698
1408.2000,-210.000
1408.3000, -80.436
1408.4000,-210.000
1408.5000, -80.296
1408.6000, -81.255
1408.7000,-210.000
1408.8000, -83.200
1408.9000, -80.530
1409.0000,-210.000
1409.1000, -85.833
1409.2000, -80.315
1409.3000, -93.905
1409.4000, -83.830
1409.5000,-210.000
1409.6000, -84.124
1409.7000,-210.000
1409.8000, -83.757
1409.9000, -79.628
1410.0000, -88.828
1410.1000, -82.711
1410.2000, -86.824
1410.3000,-210.000
1410.4000, -81.573
1410.5000, -84.528
1410.6000, -81.979
1410.7000, -84.010
1410.8000, -83.806
1410.9000, -83.846
1411.0000, -89.726
1411.1000, -84.746
1411.2000, -84.324
1411.3000, -82.864
1411.4000, -89.473
1411.5000, -80.790
1411.6000, -86.204
1411.7000, -87.951
1411.8000, -82.518
1411.9000, -88.642
1412.0000, -82.449
1412.1000, -82.196
1412.2000, -86.152
1412.3000, -83.272
1412.4000, -81.125
1412.5000, -85.783
1412.6000, -82.493
1412.7000, -82.381
1412.8000, -81.244
1412.9000,-210.000
1413.0000, -81.486
1413.1000, -82.004
1413.2000, -83.062
1413.3000, -83.591
1413.4000, -81.277
1413.5000, -80.736
1413.6000, -84.817
1413.7000, -83.292
1413.8000, -83.080
1413.9000, -82.574
1414.0000, -81.162
1414.1000, -81.977
1414.2000, -83.116
1414.3000, -82.545
1414.4000, -83.297
1414.5000, -84.346
1414.6000, -82.625
1414.7000, -87.978
1414.8000, -82.425
1414.9000, -83.610
1415.0000, -79.235
1415.1000,-210.000
1415.2000, -82.320
1415.3000, -82.284
1415.4000, -83.395
1415.5000, -82.705
1415.6000, -87.315
1415.7000, -80.968
1415.8000, -82.782
1415.9000, -80.606
1416.0000, -86.418
1416.1000, -84.494
1416.2000, -83.291
1416.3000, -85.488
1416.4000, -82.325
1416.5000, -81.757
1416.6000, -85.031
1416.7000, -83.372
1416.8000, -85.342
1416.9000, -81.651
1417.0000,-210.000
1417.1000, -81.385
1417.2000, -81.205
1417.3000, -83.239
1417.4000, -87.702
1417.5000, -83.877
1417.6000, -81.917
1417.7000, -87.778
1417.8000, -81.687
1417.9000, -85.859
1418.0000, -85.340
1418.1000, -84.940
1418.2000, -84.734
1418.3000, -85.026
1418.4000, -82.332
1418.5000, -88.676
1418.6000, -81.873
1418.7000, -83.843
1418.8000, -87.735
1418.9000, -84.526
1419.0000, -82.386
1419.1000, -81.827
1419.2000, -88.222
1419.3000, -80.792
1419.4000, -92.197
1419.5000, -84.925
1419.6000, -84.855
1419.7000,-210.000
1419.8000, -78.081
1419.9000, -88.148
1420.0000, -82.151
1420.1000, -91.266
1420.2000, -83.249
1420.3000, -83.245
1420.4000, -83.022
1420.5000, -80.538
1420.6000, -84.253
1420.7000,-210.000
1420.8000, -87.622
1420.9000, -83.603
1421.0000, -82.232
1421.1000,-210.000
1421.2000, -78.684
1421.3000, -85.606
1421.4000, -82.657
1421.5000, -87.271
1421.6000, -80.291
1421.7000, -81.185
1421.8000, -94.169
1421.9000, -85.934
1422.0000, -82.681
1422.1000, -93.032
1422.2000, -80.909
1422.3000,-210.000
1422.4000, -84.940
1422.5000, -82.858
1422.6000, -83.194
1422.7000, -82.699
1422.8000, -82.839
1422.9000, -82.251
1423.0000, -83.413
1423.1000, -87.644
1423.2000, -82.149
1423.3000, -87.808
1423.4000, -84.212
1423.5000, -80.817
1423.6000, -83.157
1423.7000, -85.308
1423.8000, -80.519
1423.9000,-210.000
1424.0000, -91.314
1424.1000, -85.489
1424.2000, -84.828
1424.3000, -83.988
1424.4000, -82.761
1424.5000, -81.035
1424.6000, -90.686
1424.7000, -82.129
1424.8000, -82.620
1424.9000, -86.141
1425.0000, -83.082
1425.1000, -80.631
1425.2000, -86.876
1425.3000, -82.281
1425.4000, -84.558
1425.5000, -82.869
1425.6000, -87.246
1425.7000, -86.750
1425.8000, -85.026
1425.9000, -85.741
1426.0000, -81.126
1426.1000, -82.848
1426.2000, -84.853
1426.3000, -81.029
1426.4000, -85.644
1426.5000, -83.081
1426.6000, -82.194
1426.7000, -85.557
1426.8000, -85.353
1426.9000, -82.739
1427.0000, -83.648
1427.1000, -85.424
1427.2000, -84.395
1427.3000, -79.886
1427.4000,-210.000
1427.5000, -78.120
1427.6000,-210.000
1427.7000, -79.882
1427.8000, -92.971
1427.9000, -81.521
1428.0000, -90.057
1428.1000, -82.562
1428.2000, -81.451
1428.3000, -83.972
1428.4000, -82.707
1428.5000, -87.165
1428.6000, -84.460
1428.7000, -89.088
1428.8000, -81.780
1428.9000, -84.027
1429.0000, -87.405
1429.1000, -82.128
1429.2000, -89.601
1429.3000, -86.202
1429.4000,-210.000
1429.5000, -81.309
1429.6000, -88.264
1429.7000, -81.148
1429.8000, -83.292
1429.9000, -82.928
1430.0000, -83.204
1430.1000,-210.000
1430.2000, -81.577
1430.3000, -80.130
1430.4000, -82.630
1430.5000, -83.839
1430.6000, -85.655
1430.7000, -84.049
1430.8000, -80.210
1430.9000,-210.000
1431.0000, -81.570
1431.1000, -79.722
1431.2000, -79.852
1431.3000, -81.878
1431.4000,-210.000
1431.5000, -78.988
1431.6000, -88.356
1431.7000, -81.452
1431.8000, -80.737
1431.9000, -82.156
1432.0000, -80.063
1432.1000, -85.537
1432.2000,-210.000
1432.3000, -82.553
1432.4000, -82.161
1432.5000, -82.687
1432.6000, -84.459
1432.7000, -81.462
1432.8000, -82.417
1432.9000, -83.471
1433.0000, -97.836
1433.1000, -83.139
1433.2000, -79.805
1433.3000, -85.473
1433.4000, -84.355
1433.5000, -82.464
1433.6000, -88.886
1433.7000, -81.887
1433.8000, -86.137
1433.9000, -83.037
1434.0000, -81.541
1434.1000, -82.225
1434.2000, -84.206
1434.3000, -86.080
1434.4000, -92.958
1434.5000, -83.603
1434.6000, -84.156
1434.7000, -92.866
1434.8000, -78.586
1434.9000,-210.000
1435.0000, -83.221
1435.1000, -78.157
1435.2000, -84.237
1435.3000, -85.455
1435.4000, -89.022
1435.5000, -88.134
1435.6000, -82.001
1435.7000, -87.773
1435.8000, -83.546
1435.9000, -82.440
1436.0000, -82.605
1436.1000, -85.393
1436.2000,-210.000
1436.3000, -81.672
1436.4000, -83.736
1436.5000, -81.438
1436.6000, -86.596
1436.7000, -85.160
1436.8000, -86.385
1436.9000, -81.857
1437.0000, -82.852
1437.1000, -81.353
1437.2000, -82.343
1437.3000, -81.900
1437.4000,-210.000
1437.5000, -87.462
1437.6000, -83.096
1437.7000, -84.682
1437.8000, -82.162
1437.9000, -85.088
1438.0000, -86.013
1438.1000, -98.439
1438.2000, -82.394
1438.3000, -81.778
1438.4000, -83.646
1438.5000, -82.944
1438.6000, -83.856
1438.7000, -85.014
1438.8000, -84.411
1438.9000, -82.752
1439.0000, -82.077
1439.1000, -88.439
1439.2000, -80.803
1439.3000,-210.000
1439.4000, -83.864
1439.5000, -80.064
1439.6000, -82.983
1439.7000, -84.714
1439.8000, -81.721
1439.9000, -82.523
1440.0000, -88.117
1440.1000, -81.538
1440.2000,-210.000
1440.3000, -83.158
1440.4000, -84.310
1440.5000, -87.363
1440.6000, -82.976
1440.7000, -81.609
1440.8000, -82.656
1440.9000,-210.000
1441.0000, -82.978
1441.1000, -80.535
1441.2000,-210.000
1441.3000, -81.242
1441.4000, -84.926
1441.5000, -84.084
1441.6000, -85.218
1441.7000, -82.396
1441.8000, -82.247
1441.9000, -84.152
1442.0000, -82.077
1442.1000, -85.452
1442.2000, -81.226
1442.3000, -83.573
1442.4000, -82.914
1442.5000, -82.530
1442.6000, -83.646
1442.7000, -82.317
1442.8000, -88.804
1442.9000, -81.526
1443.0000, -85.809
1443.1000, -81.406
1443.2000, -83.628
1443.3000, -84.198
1443.4000, -83.410
1443.5000, -81.576
1443.6000, -82.896
1443.7000, -87.165
1443.8000, -81.535
1443.9000,-210.000
1444.0000, -81.405
1444.1000, -78.402
1444.2000, -84.432
1444.3000, -94.646
1444.4000, -83.536
1444.5000, -85.795
1444.6000, -83.113
1444.7000, -81.506
1444.8000, -84.633
1444.9000, -83.111
1445.0000, -84.521
1445.1000, -85.493
1445.2000, -82.611
1445.3000, -79.515
1445.4000,-210.000
1445.5000, -83.795
1445.6000, -83.134
1445.7000, -81.629
1445.8000, -81.794
1445.9000, -82.424
1446.0000, -94.745
1446.1000, -84.638
1446.2000, -83.140
1446.3000, -83.398
1446.4000, -84.405
1446.5000, -86.235
1446.6000, -82.301
1446.7000, -86.786
1446.8000, -85.202
1446.9000, -83.510
1447.0000,-210.000
1447.1000, -79.269
1447.2000, -86.228
1447.3000, -83.527
1447.4000, -87.563
1447.5000, -79.511
1447.6000,-210.000
1447.7000, -84.772
1447.8000, -92.601
1447.9000, -83.234
1448.0000, -81.694
1448.1000, -84.909
1448.2000, -85.294
1448.3000, -85.273
1448.4000, -84.138
1448.5000, -82.746
1448.6000, -79.797
1448.7000, -86.728
1448.8000, -80.094
1448.9000,-210.000
1449.0000, -78.448
1449.1000,-210.000
1449.2000, -83.783
1449.3000, -86.408
1449.4000, -83.420
1449.5000, -89.119
1449.6000, -85.781
1449.7000, -82.917
1449.8000, -84.545
1449.9000, -80.554
1450.0000, -83.025
1450.1000,-210.000
1450.2000, -81.962
1450.3000, -84.957
1450.4000, -83.201
1450.5000, -83.918
1450.6000, -83.137
1450.7000, -83.913
1450.8000, -83.156
1450.9000, -82.709
1451.0000, -84.793
1451.1000, -83.222
1451.2000, -84.345
1451.3000, -84.374
1451.4000, -85.610
1451.5000, -83.562
1451.6000, -82.274
1451.7000, -84.590
1451.8000, -83.464
1451.9000, -82.899
1452.0000, -83.476
1452.1000, -83.394
1452.2000, -84.622
1452.3000, -83.027
1452.4000, -80.329
1452.5000, -80.363
1452.6000,-210.000
1452.7000, -82.192
1452.8000, -79.580
1452.9000, -82.621
1453.0000, -85.061
1453.1000,-210.000
1453.2000, -81.802
1453.3000,-210.000
1453.4000, -83.406
1453.5000, -84.406
1453.6000, -83.742
1453.7000, -83.556
1453.8000, -84.046
1453.9000, -86.160
1454.0000, -82.453
1454.1000, -83.783
1454.2000, -87.326
1454.3000, -82.956
1454.4000, -83.011
1454.5000, -85.418
1454.6000, -81.860
1454.7000, -83.831
1454.8000, -83.637
1454.9000, -85.158
1455.0000, -82.819
1455.1000, -84.273
1455.2000, -85.595
1455.3000, -88.534
1455.4000, -85.212
1455.5000, -84.040
1455.6000, -86.246
1455.7000, -83.514
1455.8000, -81.236
1455.9000, -84.324
1456.0000, -86.831
1456.1000, -86.467
1456.2000, -82.430
1456.3000, -82.137
1456.4000, -87.676
1456.5000, -81.363
1456.6000, -89.143
1456.7000, -88.027
1456.8000, -84.750
1456.9000, -81.779
1457.0000, -83.778
1457.1000, -83.620
1457.2000, -85.704
1457.3000,-210.000
1457.4000, -82.582
1457.5000, -81.393
1457.6000, -84.273
1457.7000, -82.397
1457.8000, -87.024
1457.9000, -81.077
1458.0000, -82.342
1458.1000, -83.181
1458.2000, -84.195
1458.3000, -85.797
1458.4000, -83.087
1458.5000, -81.567
1458.6000, -85.677
1458.7000, -82.817
1458.8000, -82.301
1458.9000, -89.071
1459.0000, -83.487
1459.1000, -84.226
1459.2000, -91.410
1459.3000, -82.443
1459.4000, -84.110
1459.5000, -80.840
1459.6000, -89.468
1459.7000, -84.173
1459.8000, -85.342
1459.9000, -86.884
1460.0000, -82.926
1460.1000, -85.762
1460.2000, -84.412
1460.3000, -84.404
1460.4000, -80.685
1460.5000, -87.155
1460.6000, -85.125
1460.7000, -89.929
1460.8000, -81.883
1460.9000, -81.737
1461.0000, -81.173
1461.1000, -86.052
1461.2000, -89.312
1461.3000, -82.436
1461.4000, -84.656
1461.5000, -85.635
1461.6000, -80.833
1461.7000, -82.949
1461.8000,-102.606
1461.9000, -84.161
1462.0000, -82.744
1462.1000, -82.229
1462.2000, -83.418
1462.3000, -83.594
1462.4000, -95.348
1462.5000, -80.887
1462.6000, -80.580
1462.7000,-210.000
1462.8000, -82.014
1462.9000, -87.250
1463.0000, -83.493
1463.1000, -81.498
1463.2000, -81.126
1463.3000, -83.360
1463.4000, -81.604
1463.5000, -93.109
1463.6000, -85.891
1463.7000, -82.031
1463.8000, -88.737
1463.9000, -84.148
1464.0000, -82.591
1464.1000, -86.750
1464.2000, -80.667
1464.3000, -86.647
1464.4000, -87.309
1464.5000, -82.601
1464.6000, -81.391
1464.7000, -84.416
1464.8000, -79.582
1464.9000, -86.305
1465.0000, -81.745
1465.1000, -92.222
1465.2000,-210.000
1465.3000, -79.090
1465.4000, -88.139
1465.5000, -84.329
1465.6000, -85.554
1465.7000, -83.234
1465.8000, -83.011
1465.9000, -82.028
1466.0000, -89.591
1466.1000, -86.604
1466.2000, -80.790
1466.3000, -86.310
1466.4000, -84.662
1466.5000, -82.174
1466.6000, -82.717
1466.7000, -84.667
1466.8000, -87.960
1466.9000, -97.209
1467.0000, -84.505
1467.1000, -82.616
1467.2000, -91.745
1467.3000, -82.469
1467.4000, -84.889
1467.5000, -82.115
1467.6000, -85.992
1467.7000, -89.836
1467.8000, -84.559
1467.9000, -84.607
1468.0000, -89.370
1468.1000, -83.883
1468.2000, -83.926
1468.3000, -83.422
1468.4000, -81.862
1468.5000, -84.431
1468.6000, -83.070
1468.7000, -84.325
1468.8000, -81.702
1468.9000, -82.876
1469.0000, -81.033
1469.1000, -85.030
1469.2000, -85.548
1469.3000, -83.306
1469.4000, -80.749
1469.5000, -83.287
1469.6000, -88.574
1469.7000, -85.439
1469.8000, -82.318
1469.9000, -86.287
1470.0000, -81.871
1470.1000, -85.067
1470.2000, -83.733
1470.3000,-210.000
1470.4000, -80.476
1470.5000, -80.524
1470.6000, -88.775
1470.7000, -83.110
1470.8000, -86.456
1470.9000, -81.289
1471.0000, -81.826
1471.1000, -83.011
1471.2000, -85.220
1471.3000, -81.851
1471.4000, -83.347
1471.5000, -84.414
1471.6000, -87.482
1471.7000, -81.223
1471.8000, -85.420
1471.9000, -83.311
1472.0000, -81.930
1472.1000, -85.514
1472.2000, -83.382
1472.3000, -81.180
1472.4000, -87.184
1472.5000, -87.212
1472.6000, -83.791
1472.7000, -82.604
1472.8000, -86.287
1472.9000, -84.907
1473.0000, -82.817
1473.1000, -86.529
1473.2000, -97.718
1473.3000, -82.269
1473.4000, -82.633
1473.5000, -82.565
1473.6000, -83.466
1473.7000, -83.989
1473.8000, -84.281
1473.9000, -81.579
1474.0000, -84.762
1474.1000, -85.231
1474.2000, -83.324
1474.3000, -85.904
1474.4000, -84.856
1474.5000, -82.361
1474.6000, -86.212
1474.7000, -87.274
1474.8000, -82.456
1474.9000, -84.596
1475.0000, -88.494
1475.1000, -81.926
1475.2000, -83.580
1475.3000, -82.915
1475.4000, -83.987
1475.5000, -83.307
1475.6000, -83.370
1475.7000, -92.660
1475.8000, -81.191
1475.9000, -86.277
1476.0000, -85.080
1476.1000, -86.880
1476.2000, -82.401
1476.3000, -82.375
1476.4000, -81.599
1476.5000, -82.652
1476.6000, -83.212
1476.7000, -87.300
1476.8000, -85.699
1476.9000, -82.447
1477.0000, -82.738
1477.1000, -82.314
1477.2000, -87.323
1477.3000, -81.626
1477.4000, -84.045
1477.5000, -83.054
1477.6000, -82.619
1477.7000, -82.139
1477.8000, -84.522
1477.9000, -80.669
1478.0000, -88.261
1478.1000, -85.042
1478.2000, -89.249
1478.3000, -84.554
1478.4000, -80.949
1478.5000,-210.000
1478.6000, -82.610
1478.7000, -89.697
1478.8000, -82.289
1478.9000, -86.222
1479.0000, -82.554
1479.1000, -83.270
1479.2000, -85.033
1479.3000, -82.182
1479.4000, -82.474
1479.5000, -84.881
1479.6000, -83.709
1479.7000, -84.568
1479.8000, -82.833
1479.9000, -82.077
1480.0000, -82.017
1480.1000, -81.685
1480.2000,-210.000
1480.3000, -81.809
1480.4000, -83.118
1480.5000, -81.167
1480.6000, -90.377
1480.7000, -84.627
1480.8000, -85.767
1480.9000, -81.438
1481.0000, -82.461
1481.1000, -84.882
1481.2000, -85.974
1481.3000, -82.226
1481.4000, -82.150
1481.5000, -82.164
1481.6000, -83.062
1481.7000, -85.908
1481.8000, -83.380
1481.9000, -82.978
1482.0000, -82.075
1482.1000, -82.908
1482.2000, -82.123
1482.3000, -81.956
1482.4000,-210.000
1482.5000, -84.504
1482.6000, -83.813
1482.7000, -83.212
1482.8000, -82.979
1482.9000, -81.807
1483.0000, -83.426
1483.1000, -82.889
1483.2000, -83.315
1483.3000, -88.853
1483.4000, -81.871
1483.5000, -83.250
1483.6000, -83.255
1483.7000, -83.905
1483.8000, -81.806
1483.9000, -87.518
1484.0000, -81.349
1484.1000, -86.092
1484.2000, -84.786
1484.3000, -83.674
1484.4000, -82.159
1484.5000, -87.540
1484.6000, -83.006
1484.7000, -83.626
1484.8000, -98.214
1484.9000, -83.108
1485.0000, -81.733
1485.1000, -85.748
1485.2000, -85.431
1485.3000, -79.033
1485.4000, -83.601
1485.5000,-210.000
1485.6000, -83.640
1485.7000, -82.163
1485.8000, -81.888
1485.9000,-210.000
1486.0000, -82.671
1486.1000, -84.414
1486.2000, -80.993
1486.3000, -88.624
1486.4000, -81.712
1486.5000, -87.133
1486.6000, -81.170
1486.7000, -90.352
1486.8000, -82.811
1486.9000, -86.252
1487.0000, -82.255
1487.1000, -90.551
1487.2000, -83.982
1487.3000, -83.162
1487.4000, -80.276
1487.5000, -93.974
1487.6000, -83.667
1487.7000, -82.444
1487.8000, -83.440
1487.9000, -84.562
1488.0000, -82.845
1488.1000, -86.120
1488.2000, -80.998
1488.3000, -83.677
1488.4000, -82.437
1488.5000, -83.114
1488.6000, -84.192
1488.7000, -84.669
1488.8000, -83.105
1488.9000, -81.698
1489.0000, -81.949
1489.1000, -85.701
1489.2000, -83.413
1489.3000, -85.450
1489.4000, -80.650
1489.5000, -84.887
1489.6000, -80.556
1489.7000,-114.176
1489.8000, -86.620
1489.9000, -82.184
1490.0000, -81.470
1490.1000, -85.549
1490.2000, -85.110
1490.3000, -89.532
1490.4000, -79.768
1490.5000,-210.000
1490.6000, -79.832
1490.7000, -85.059
1490.8000, -83.042
1490.9000, -82.865
1491.0000, -88.612
1491.1000, -81.346
1491.2000, -85.785
1491.3000, -82.579
1491.4000, -86.753
1491.5000, -82.076
1491.6000, -79.934
1491.7000, -87.356
1491.8000, -82.252
1491.9000, -83.137
1492.0000, -83.471
1492.1000, -82.690
1492.2000, -84.352
1492.3000, -83.110
1492.4000, -82.708
1492.5000, -84.365
1492.6000, -83.166
1492.7000, -86.758
1492.8000, -89.179
1492.9000, -82.936
1493.0000, -82.950
1493.1000, -84.145
1493.2000, -80.422
1493.3000, -88.824
1493.4000, -82.110
1493.5000, -82.722
1493.6000, -83.468
1493.7000, -82.679
1493.8000, -88.849
1493.9000, -82.486
1494.0000, -83.297
1494.1000, -81.754
1494.2000, -84.478
1494.3000, -84.204
1494.4000, -81.979
1494.5000, -83.057
1494.6000,-210.000
1494.7000, -81.173
1494.8000, -84.213
1494.9000, -82.743
1495.0000, -81.458
1495.1000, -87.145
1495.2000, -84.315
1495.3000, -84.326
1495.4000, -84.805
1495.5000, -86.969
1495.6000, -81.796
1495.7000, -85.355
1495.8000, -83.548
1495.9000, -82.412
1496.0000, -80.993
1496.1000, -83.443
1496.2000, -84.912
1496.3000, -83.576
1496.4000, -82.021
1496.5000, -83.660
1496.6000, -84.546
1496.7000, -82.768
1496.8000, -84.726
1496.9000, -81.533
1497.0000, -84.887
1497.1000, -86.357
1497.2000, -82.606
1497.3000, -81.483
1497.4000, -84.046
1497.5000, -82.690
1497.6000, -81.327
1497.7000, -85.694
1497.8000, -82.465
1497.9000, -87.601
1498.0000, -82.883
1498.1000, -84.130
1498.2000, -81.700
1498.3000, -82.465
1498.4000, -87.564
1498.5000, -82.493
1498.6000, -83.165
1498.7000, -84.262
1498.8000, -86.166
1498.9000, -84.068
1499.0000, -81.692
1499.1000, -81.884
1499.2000, -84.906
1499.3000, -83.045
1499.4000, -82.375
1499.5000, -83.059
1499.6000, -82.280
1499.7000, -82.593
1499.8000, -89.352
1499.9000, -80.357
1500.0000, -87.009
1500.1000, -83.347
1500.2000, -83.638
1500.3000, -82.457
1500.4000, -84.765
1500.5000, -82.107
1500.6000, -81.776
1500.7000, -88.228
1500.8000, -81.564
1500.9000, -82.497
1501.0000, -81.511
1501.1000, -89.841
1501.2000, -85.866
1501.3000, -81.384
1501.4000, -82.704
1501.5000, -81.667
1501.6000, -84.964
1501.7000, -85.325
1501.8000, -83.517
1501.9000, -82.822
1502.0000, -82.679
1502.1000, -83.941
1502.2000, -80.141
1502.3000, -85.338
1502.4000, -86.324
1502.5000, -80.427
1502.6000, -99.156
1502.7000, -86.422
1502.8000, -81.571
1502.9000, -79.946
1503.0000, -87.479
1503.1000, -84.298
1503.2000, -83.563
1503.3000, -80.625
1503.4000, -80.484
1503.5000, -82.880
1503.6000,-210.000
1503.7000, -83.236
1503.8000, -84.199
1503.9000, -84.799
1504.0000, -82.542
1504.1000, -80.926
1504.2000, -85.402
1504.3000, -81.368
1504.4000, -80.856
1504.5000, -82.901
1504.6000, -83.742
1504.7000, -81.290
1504.8000, -82.779
1504.9000,-210.000
1505.0000, -80.601
1505.1000, -79.058
1505.2000,-210.000
1505.3000, -95.787
1505.4000, -78.789
1505.5000,-210.000
1505.6000, -82.410
1505.7000, -86.383
1505.8000, -81.225
1505.9000, -81.534
1506.0000, -86.538
1506.1000, -79.445
1506.2000, -83.973
1506.3000,-210.000
1506.4000, -81.058
1506.5000, -84.450
1506.6000, -79.756
1506.7000, -80.515
1506.8000,-210.000
1506.9000,-210.000
1507.0000, -79.647
1507.1000, -80.040
1507.2000,-210.000
1507.3000, -87.173
1507.4000, -83.777
1507.5000, -79.527
1507.6000,-210.000
1507.7000, -81.062
1507.8000, -81.051
1507.9000, -88.605
1508.0000, -82.652
1508.1000, -84.560
1508.2000, -81.312
1508.3000, -85.479
1508.4000, -81.951
1508.5000, -83.134
1508.6000,-210.000
1508.7000, -80.301
1508.8000, -83.345
1508.9000, -85.179
1509.0000, -83.913
1509.1000, -85.616
1509.2000, -80.723
1509.3000, -82.725
1509.4000, -85.537
1509.5000, -80.980
1509.6000, -85.595
1509.7000, -82.823
1509.8000, -81.991
1509.9000, -85.227
1510.0000, -83.583
1510.1000, -83.346
1510.2000, -83.720
1510.3000, -83.647
1510.4000, -81.316
1510.5000, -82.998
1510.6000, -80.614
1510.7000, -81.911
1510.8000,-210.000
1510.9000, -85.825
1511.0000, -89.038
1511.1000, -80.707
1511.2000, -90.252
1511.3000, -83.387
1511.4000, -84.374
1511.5000, -83.206
1511.6000, -84.604
1511.7000, -81.345
1511.8000, -83.468
1511.9000, -86.390
1512.0000, -81.697
1512.1000, -86.729
1512.2000, -82.641
1512.3000, -83.215
1512.4000, -81.689
1512.5000, -82.933
1512.6000, -81.604
1512.7000, -81.565
1512.8000, -84.581
1512.9000, -86.827
1513.0000, -81.996
1513.1000, -85.577
1513.2000, -82.359
1513.3000, -83.384
1513.4000, -87.645
1513.5000, -81.224
1513.6000, -82.633
1513.7000, -82.359
1513.8000, -87.395
1513.9000, -83.362
1514.0000, -84.535
1514.1000, -83.333
1514.2000, -81.349
1514.3000, -82.351
1514.4000, -82.502
1514.5000, -83.084
1514.6000, -82.690
1514.7000, -83.270
1514.8000, -83.985
1514.9000, -82.225
1515.0000, -81.719
1515.1000, -82.015
1515.2000, -83.482
1515.3000, -80.865
1515.4000, -86.204
1515.5000, -86.242
1515.6000, -81.709
1515.7000, -82.764
1515.8000, -83.463
1515.9000, -88.412
1516.0000, -82.573
1516.1000, -81.646
1516.2000, -82.633
1516.3000, -85.366
1516.4000, -84.797
1516.5000, -84.479
1516.6000, -81.314
1516.7000, -84.408
1516.8000, -82.790
1516.9000, -81.625
1517.0000, -82.028
1517.1000, -80.292
1517.2000, -86.382
1517.3000, -81.437
1517.4000, -84.562
1517.5000, -84.203
1517.6000, -89.808
1517.7000, -79.976
1517.8000, -83.016
1517.9000, -82.377
1518.0000, -81.233
1518.1000, -80.716
1518.2000,-210.000
1518.3000, -84.052
1518.4000, -81.640
1518.5000, -90.387
1518.6000, -81.188
1518.7000, -83.748
1518.8000, -81.130
1518.9000, -82.649
1519.0000, -80.850
1519.1000, -82.266
1519.2000, -85.383
1519.3000, -83.455
1519.4000, -81.827
1519.5000, -81.954
1519.6000, -83.366
1519.7000, -83.299
1519.8000, -82.673
1519.9000, -82.858
1520.0000, -83.670
1520.1000, -81.446
1520.2000, -85.825
1520.3000, -81.833
1520.4000, -80.882
1520.5000, -81.326
1520.6000, -85.985
1520.7000, -80.568
1520.8000, -83.455
1520.9000, -83.343
1521.0000, -82.432
1521.1000, -81.791
1521.2000, -83.534
1521.3000, -86.703
1521.4000, -82.457
1521.5000, -81.721
1521.6000, -83.572
1521.7000, -83.483
1521.8000, -81.862
1521.9000, -84.320
1522.0000, -83.751
1522.1000, -82.875
1522.2000, -82.278
1522.3000, -83.368
1522.4000, -80.911
1522.5000, -81.136
1522.6000, -83.406
1522.7000, -82.687
1522.8000, -82.084
1522.9000, -83.776
1523.0000, -83.023
1523.1000, -82.891
1523.2000, -80.370
1523.3000, -83.246
1523.4000, -84.917
1523.5000, -80.583
1523.6000, -83.684
1523.7000, -82.561
1523.8000, -81.958
1523.9000, -86.145
1524.0000, -81.882
1524.1000, -85.310
1524.2000, -80.111
1524.3000,-210.000
1524.4000, -80.508
1524.5000, -81.149
1524.6000, -83.135
1524.7000, -82.185
1524.8000, -82.053
1524.9000, -83.093
1525.0000, -81.699
1525.1000, -83.411
1525.2000, -82.392
1525.3000, -81.907
1525.4000, -80.728
1525.5000, -80.693
1525.6000, -81.457
1525.7000, -83.228
1525.8000, -94.945
1525.9000, -83.593
1526.0000, -81.993
1526.1000, -82.677
1526.2000, -81.884
1526.3000, -88.503
1526.4000, -82.701
1526.5000, -85.494
1526.6000, -83.021
1526.7000, -82.759
1526.8000, -83.533
1526.9000, -85.298
1527.0000, -81.755
1527.1000, -82.237
1527.2000, -79.579
1527.3000, -89.734
1527.4000, -82.056
1527.5000, -83.593
1527.6000, -82.865
1527.7000, -84.052
1527.8000, -81.732
1527.9000, -83.600
1528.0000, -82.873
1528.1000, -82.643
1528.2000, -83.515
1528.3000, -81.947
1528.4000, -78.381
1528.5000,-210.000
1528.6000, -78.603
1528.7000, -90.158
1528.8000, -81.440
1528.9000, -80.101
1529.0000, -86.909
1529.1000, -80.340
1529.2000, -81.706
1529.3000, -83.097
1529.4000, -80.831
1529.5000, -82.710
1529.6000, -79.874
1529.7000,-210.000
1529.8000, -80.099
1529.9000,-210.000
1530.0000, -79.155
1530.1000, -82.048
1530.2000, -81.965
1530.3000, -81.804
1530.4000, -84.530
1530.5000, -82.170
1530.6000, -80.407
1530.7000, -82.420
1530.8000, -81.767
1530.9000, -82.308
1531.0000, -82.998
1531.1000, -80.803
1531.2000, -82.642
1531.3000, -85.714
1531.4000, -84.837
1531.5000, -84.630
1531.6000, -80.161
1531.7000, -82.922
1531.8000, -81.458
1531.9000, -81.384
1532.0000, -82.880
1532.1000, -82.165
1532.2000, -83.568
1532.3000, -81.966
1532.4000, -82.536
1532.5000, -89.398
1532.6000, -80.118
1532.7000, -83.567
1532.8000, -81.018
1532.9000, -84.684
1533.0000, -80.841
1533.1000, -96.420
1533.2000, -81.760
1533.3000, -82.436
1533.4000, -83.734
1533.5000, -80.325
1533.6000, -82.345
1533.7000, -80.623
1533.8000, -82.240
1533.9000, -81.678
1534.0000, -81.799
1534.1000, -83.152
1534.2000, -81.128
1534.3000, -93.305
1534.4000, -78.418
1534.5000, -83.279
1534.6000, -85.358
1534.7000, -84.743
1534.8000, -81.604
1534.9000, -81.544
1535.0000, -84.278
1535.1000, -81.209
1535.2000, -79.483
1535.3000, -82.588
1535.4000, -82.511
1535.5000, -80.968
1535.6000, -82.572
1535.7000, -84.700
1535.8000, -82.146
1535.9000, -82.850
1536.0000, -82.021
1536.1000, -85.955
1536.2000, -91.549
1536.3000, -80.306
1536.4000, -82.817
1536.5000, -81.134
1536.6000, -83.044
1536.7000, -82.540
1536.8000, -82.608
1536.9000, -81.759
1537.0000, -83.412
1537.1000, -82.064
1537.2000, -83.910
1537.3000, -82.279
1537.4000, -82.468
1537.5000, -91.220
1537.6000, -80.411
1537.7000, -83.727
1537.8000, -81.416
1537.9000, -82.094
1538.0000, -81.047
1538.1000, -81.470
1538.2000, -82.173
1538.3000, -84.651
1538.4000, -80.242
1538.5000, -81.089
1538.6000, -91.819
1538.7000, -83.035
1538.8000, -79.719
1538.9000, -90.878
1539.0000, -82.232
1539.1000, -79.626
1539.2000, -86.324
1539.3000, -86.380
1539.4000, -80.294
1539.5000, -83.468
1539.6000, -83.554
1539.7000, -80.169
1539.8000, -85.111
1539.9000, -81.641
1540.0000, -85.538
1540.1000, -81.371
1540.2000, -82.827
1540.3000, -82.196
1540.4000, -83.742
1540.5000, -82.354
1540.6000, -80.981
1540.7000, -84.356
1540.8000, -81.414
1540.9000, -81.472
1541.0000, -81.270
1541.1000, -83.181
1541.2000, -80.137
1541.3000, -83.473
1541.4000, -80.991
1541.5000, -82.610
1541.6000, -82.393
1541.7000, -82.018
1541.8000, -84.192
1541.9000, -83.439
1542.0000, -81.922
1542.1000, -81.133
1542.2000, -81.620
1542.3000, -83.141
1542.4000, -80.932
1542.5000, -84.050
1542.6000, -81.955
1542.7000, -81.218
1542.8000, -83.333
1542.9000, -84.080
1543.0000, -81.685
1543.1000, -82.060
1543.2000, -81.636
1543.3000, -84.874
1543.4000, -85.748
1543.5000, -78.996
1543.6000, -82.645
1543.7000, -81.781
1543.8000, -81.487
1543.9000, -83.686
1544.0000, -81.475
1544.1000, -81.650
1544.2000, -82.655
1544.3000, -82.597
1544.4000, -82.070
1544.5000, -83.813
1544.6000, -83.152
1544.7000, -80.442
1544.8000, -81.612
1544.9000, -83.332
1545.0000, -82.948
1545.1000, -87.474
1545.2000, -82.808
1545.3000, -80.970
1545.4000, -80.683
1545.5000, -87.644
1545.6000, -82.110
1545.7000, -82.840
1545.8000, -85.019
1545.9000, -79.918
1546.0000, -84.015
1546.1000, -82.334
1546.2000, -81.095
1546.3000, -80.354
1546.4000,-210.000
1546.5000, -81.277
1546.6000, -80.099
1546.7000, -81.858
1546.8000, -82.761
1546.9000, -80.703
1547.0000, -83.446
1547.1000, -96.986
1547.2000, -78.806
1547.3000, -85.381
1547.4000, -80.677
1547.5000, -83.284
1547.6000, -81.343
1547.7000, -82.596
1547.8000, -82.097
1547.9000, -81.798
1548.0000, -80.730
1548.1000, -86.659
1548.2000, -80.283
1548.3000, -83.353
1548.4000, -82.155
1548.5000, -84.009
1548.6000, -80.666
1548.7000, -81.852
1548.8000, -81.968
1548.9000, -80.506
1549.0000, -83.476
1549.1000, -82.849
1549.2000, -81.500
1549.3000, -81.374
1549.4000, -81.735
1549.5000, -85.763
1549.6000, -81.516
1549.7000, -85.191
1549.8000, -81.046
1549.9000, -80.535
1550.0000, -82.066
1550.1000, -81.989
1550.2000, -80.945
1550.3000, -82.191
1550.4000, -82.719
1550.5000, -81.291
1550.6000, -80.764
1550.7000, -85.405
1550.8000, -81.880
1550.9000, -80.696
1551.0000, -82.854
1551.1000, -84.872
1551.2000, -79.775
1551.3000, -87.891
1551.4000, -81.426
1551.5000, -83.174
1551.6000, -81.530
1551.7000, -83.528
1551.8000, -81.661
1551.9000, -82.786
1552.0000, -81.361
1552.1000, -83.223
1552.2000, -80.080
1552.3000, -81.336
1552.4000, -82.759
1552.5000, -81.866
1552.6000, -80.339
1552.7000, -85.167
1552.8000, -81.444
1552.9000, -79.675
1553.0000, -85.918
1553.1000, -80.995
1553.2000, -89.836
1553.3000, -82.533
1553.4000, -81.750
1553.5000, -84.302
1553.6000, -80.813
1553.7000, -81.955
1553.8000, -81.347
1553.9000, -80.867
1554.0000,-210.000
1554.1000, -78.637
1554.2000, -82.829
1554.3000, -82.850
1554.4000, -84.168
1554.5000, -81.006
1554.6000, -83.064
1554.7000, -81.251
1554.8000, -81.688
1554.9000, -85.855
1555.0000, -82.413
1555.1000, -82.150
1555.2000, -82.403
1555.3000, -81.598
1555.4000, -82.306
1555.5000, -79.985
1555.6000, -83.010
1555.7000, -84.678
1555.8000, -80.642
1555.9000, -82.453
1556.0000, -81.550
1556.1000, -81.829
1556.2000, -80.991
1556.3000, -81.686
1556.4000, -82.536
1556.5000, -83.347
1556.6000, -80.398
1556.7000, -82.073
1556.8000, -83.242
1556.9000, -82.812
1557.0000, -81.557
1557.1000, -82.587
1557.2000, -84.125
1557.3000, -79.016
1557.4000, -83.332
1557.5000, -86.727
1557.6000, -81.409
1557.7000, -81.257
1557.8000, -82.183
1557.9000, -84.968
1558.0000, -81.023
1558.1000, -84.059
1558.2000, -81.112
1558.3000, -81.827
1558.4000, -82.341
1558.5000, -81.430
1558.6000, -83.609
1558.7000, -82.115
1558.8000, -80.917
1558.9000, -80.609
1559.0000, -82.365
1559.1000, -81.521
1559.2000, -82.354
1559.3000, -81.496
1559.4000, -82.184
1559.5000, -82.091
1559.6000, -83.053
1559.7000, -79.988
1559.8000, -82.483
1559.9000, -79.848
1560.0000, -86.433
1560.1000, -81.171
1560.2000, -82.662
1560.3000, -82.368
1560.4000, -82.419
1560.5000, -82.795
1560.6000, -82.087
1560.7000, -80.504
1560.8000, -83.301
1560.9000, -82.666
1561.0000, -81.769
1561.1000, -83.249
1561.2000, -82.333
1561.3000, -81.091
1561.4000, -81.483
1561.5000, -81.095
1561.6000, -81.657
1561.7000, -81.149
1561.8000, -83.272
1561.9000,-210.000
1562.0000, -81.384
1562.1000, -78.436
1562.2000,-210.000
1562.3000, -77.244
1562.4000, -84.561
1562.5000, -83.354
1562.6000, -80.869
1562.7000, -83.388
1562.8000, -81.295
1562.9000, -80.425
1563.0000, -84.405
1563.1000, -81.514
1563.2000, -78.987
1563.3000, -82.653
1563.4000, -79.525
1563.5000,-210.000
1563.6000, -79.636
1563.7000, -83.420
1563.8000, -81.924
1563.9000, -79.534
1564.0000, -83.829
1564.1000, -81.116
1564.2000, -80.785
1564.3000, -81.780
1564.4000, -88.680
1564.5000, -83.802
1564.6000, -80.285
1564.7000, -81.592
1564.8000, -81.481
1564.9000, -82.746
1565.0000, -82.311
1565.1000, -82.467
1565.2000, -81.148
1565.3000, -82.012
1565.4000, -80.704
1565.5000, -81.560
1565.6000, -82.188
1565.7000, -82.120
1565.8000, -81.219
1565.9000, -82.024
1566.0000, -80.814
1566.1000, -81.902
1566.2000, -82.540
1566.3000, -80.882
1566.4000, -83.060
1566.5000, -81.125
1566.6000, -82.322
1566.7000, -81.887
1566.8000, -80.723
1566.9000, -81.952
1567.0000, -80.257
1567.1000, -87.356
1567.2000, -85.436
1567.3000, -82.256
1567.4000, -81.784
1567.5000, -80.597
1567.6000, -81.294
1567.7000, -79.794
1567.8000, -86.735
1567.9000, -82.932
1568.0000, -83.238
1568.1000, -82.964
1568.2000, -81.456
1568.3000, -82.381
1568.4000, -81.245
1568.5000, -83.388
1568.6000, -79.073
1568.7000,-210.000
1568.8000, -80.679
1568.9000, -82.423
1569.0000, -80.568
1569.1000, -82.427
1569.2000, -83.466
1569.3000, -82.448
1569.4000, -81.431
1569.5000, -83.472
1569.6000, -80.615
1569.7000, -83.507
1569.8000, -80.732
1569.9000, -89.998
1570.0000, -83.320
1570.1000, -81.043
1570.2000, -81.773
1570.3000, -81.721
1570.4000, -84.423
1570.5000, -83.156
1570.6000, -81.092
1570.7000, -81.785
1570.8000, -85.276
1570.9000, -80.361
1571.0000, -81.936
1571.1000, -82.009
1571.2000, -84.665
1571.3000, -81.450
1571.4000, -84.510
1571.5000, -79.729
1571.6000, -81.073
1571.7000, -83.776
1571.8000, -81.779
1571.9000, -82.031
1572.0000, -83.220
1572.1000, -87.312
1572.2000, -79.915
1572.3000, -84.342
1572.4000, -81.183
1572.5000, -82.617
1572.6000, -80.159
1572.7000, -82.204
1572.8000, -81.704
1572.9000, -80.956
1573.0000, -85.378
1573.1000, -81.437
1573.2000, -81.638
1573.3000, -80.733
1573.4000, -86.639
1573.5000, -80.410
1573.6000, -81.476
1573.7000, -79.064
1573.8000, -81.469
1573.9000, -83.683
1574.0000, -80.081
1574.1000, -95.061
1574.2000, -80.858
1574.3000, -83.222
1574.4000, -79.270
1574.5000, -81.283
1574.6000, -85.574
1574.7000, -83.041
1574.8000, -80.807
1574.9000, -88.812
1575.0000, -79.398
1575.1000, -87.834
1575.2000, -80.316
1575.3000, -85.575
1575.4000, -77.074
1575.5000,-210.000
1575.6000, -84.025
1575.7000, -81.580
1575.8000, -79.791
1575.9000, -84.958
1576.0000, -81.048
1576.1000, -82.867
1576.2000, -82.410
1576.3000,-210.000
1576.4000, -78.189
1576.5000, -82.261
1576.6000, -94.330
1576.7000, -79.464
1576.8000, -81.275
1576.9000, -85.335
1577.0000, -80.374
1577.1000, -81.963
1577.2000, -82.366
1577.3000, -80.711
1577.4000,-210.000
1577.5000, -80.426
1577.6000, -81.810
1577.7000, -80.684
1577.8000, -82.833
1577.9000, -93.516
1578.0000, -82.138
1578.1000, -86.514
1578.2000, -81.854
1578.3000, -82.346
1578.4000, -83.862
1578.5000, -84.488
1578.6000, -81.355
1578.7000, -80.709
1578.8000, -83.630
1578.9000, -82.567
1579.0000, -82.435
1579.1000, -80.209
1579.2000, -82.056
1579.3000, -82.146
1579.4000, -83.328
1579.5000, -81.116
1579.6000, -80.894
1579.7000, -85.892
1579.8000, -81.704
1579.9000, -81.667
1580.0000, -81.787
1580.1000, -81.468
1580.2000, -84.183
1580.3000, -82.404
1580.4000, -83.797
1580.5000, -81.127
1580.6000, -83.741
1580.7000, -82.746
1580.8000, -79.966
1580.9000, -81.894
1581.0000, -81.789
1581.1000, -83.131
1581.2000, -80.892
1581.3000, -83.090
1581.4000,-210.000
1581.5000, -78.188
1581.6000, -84.393
1581.7000, -82.728
1581.8000, -85.046
1581.9000, -78.945
1582.0000, -81.306
1582.1000,-210.000
1582.2000, -77.170
1582.3000,-210.000
1582.4000, -78.326
1582.5000, -79.454
1582.6000, -81.616
1582.7000, -80.547
1582.8000,-210.000
1582.9000, -77.905
1583.0000, -85.523
1583.1000, -82.879
1583.2000, -81.213
1583.3000, -85.498
1583.4000, -79.364
1583.5000, -85.134
1583.6000, -81.110
1583.7000, -79.460
1583.8000,-210.000
1583.9000, -81.337
1584.0000, -78.178
1584.1000, -87.247
1584.2000, -81.126
1584.3000, -80.894
1584.4000, -81.384
1584.5000, -82.594
1584.6000, -81.842
1584.7000, -82.456
1584.8000, -82.104
1584.9000, -80.974
1585.0000, -81.350
1585.1000, -89.601
1585.2000, -82.456
1585.3000, -81.298
1585.4000, -84.698
1585.5000, -81.701
1585.6000, -83.171
1585.7000, -81.594
1585.8000, -83.986
1585.9000, -83.239
1586.0000, -81.687
1586.1000, -83.421
1586.2000, -80.347
1586.3000, -80.916
1586.4000, -81.219
1586.5000, -84.544
1586.6000, -79.881
1586.7000, -84.289
1586.8000, -81.680
1586.9000, -82.228
1587.0000, -80.746
1587.1000, -84.838
1587.2000, -79.391
1587.3000, -81.236
1587.4000, -83.195
1587.5000, -83.049
1587.6000, -82.172
1587.7000, -84.816
1587.8000, -82.436
1587.9000, -80.181
1588.0000, -82.251
1588.1000, -81.939
1588.2000, -80.549
1588.3000, -80.965
1588.4000, -80.620
1588.5000, -82.007
1588.6000, -81.708
1588.7000, -82.382
1588.8000, -81.946
1588.9000, -82.573
1589.0000, -81.937
1589.1000, -81.279
1589.2000, -80.597
1589.3000, -81.255
1589.4000, -87.112
1589.5000, -81.069
1589.6000, -79.277
1589.7000, -82.754
1589.8000, -81.972
1589.9000,-210.000
1590.0000, -79.427
1590.1000, -81.634
1590.2000, -86.490
1590.3000, -81.972
1590.4000,-210.000
1590.5000, -78.442
1590.6000,-210.000
1590.7000, -82.635
1590.8000, -82.295
1590.9000, -80.269
1591.0000, -79.049
1591.1000,-210.000
1591.2000, -81.443
1591.3000,-210.000
1591.4000, -83.121
1591.5000, -82.023
1591.6000, -81.903
1591.7000, -81.687
1591.8000, -81.014
1591.9000, -84.439
1592.0000, -81.270
1592.1000, -81.567
1592.2000, -84.409
1592.3000, -82.572
1592.4000, -79.528
1592.5000, -83.332
1592.6000, -88.662
1592.7000, -80.099
1592.8000,-210.000
1592.9000, -78.521
1593.0000, -80.576
1593.1000, -85.558
1593.2000, -81.860
1593.3000, -80.690
1593.4000, -83.662
1593.5000, -80.772
1593.6000, -82.752
1593.7000, -83.036
1593.8000, -81.112
1593.9000, -84.285
1594.0000, -81.783
1594.1000, -80.863
1594.2000, -81.563
1594.3000, -81.006
1594.4000, -93.657
1594.5000, -82.200
1594.6000, -84.195
1594.7000, -80.925
1594.8000, -81.554
1594.9000, -80.765
1595.0000, -81.491
1595.1000, -91.718
1595.2000, -79.782
1595.3000, -80.346
1595.4000,-210.000
1595.5000, -81.701
1595.6000, -80.165
1595.7000, -82.990
1595.8000, -82.768
1595.9000, -82.200
1596.0000, -82.528
1596.1000, -83.581
1596.2000, -82.882
1596.3000, -78.839
1596.4000,-210.000
1596.5000, -85.729
1596.6000, -78.399
1596.7000, -91.752
1596.8000, -81.454
1596.9000, -81.493
1597.0000, -82.701
1597.1000, -82.501
1597.2000, -79.260
1597.3000,-210.000
1597.4000, -80.134
1597.5000, -81.545
1597.6000, -81.825
1597.7000, -82.834
1597.8000, -82.917
1597.9000, -85.829
1598.0000, -82.470
1598.1000, -82.282
1598.2000, -80.195
1598.3000, -83.671
1598.4000, -81.677
1598.5000, -82.913
1598.6000, -83.883
1598.7000, -81.027
1598.8000, -83.405
1598.9000, -84.669
1599.0000, -81.874
1599.1000, -81.142
1599.2000, -84.318
1599.3000, -79.635
1599.4000, -89.597
1599.5000, -80.580
1599.6000, -80.848
1599.7000, -84.800
1599.8000, -80.542
1599.9000, -81.805
1600.0000, -80.488
1600.1000, -82.403
1600.2000, -79.077
1600.3000, -83.192
1600.4000, -83.390
1600.5000, -83.513
1600.6000, -79.816
1600.7000, -79.725
1600.8000, -79.537
1600.9000, -86.703
1601.0000, -97.495
1601.1000, -83.501
1601.2000, -81.030
1601.3000, -82.169
1601.4000, -84.183
1601.5000, -82.085
1601.6000, -84.168
1601.7000, -81.185
1601.8000, -83.885
1601.9000, -81.631
1602.0000, -79.943
1602.1000, -82.790
1602.2000, -82.345
1602.3000, -79.838
1602.4000,-101.928
1602.5000, -79.664
1602.6000, -83.048
1602.7000, -81.322
1602.8000, -81.729
1602.9000, -84.622
1603.0000, -79.844
1603.1000, -81.085
1603.2000, -81.504
1603.3000, -80.459
1603.4000, -82.669
1603.5000, -83.223
1603.6000, -80.715
1603.7000, -85.723
1603.8000, -79.946
1603.9000, -81.441
1604.0000, -81.883
1604.1000, -79.771
1604.2000, -88.720
1604.3000, -79.865
1604.4000, -80.409
1604.5000, -85.867
1604.6000, -81.224
1604.7000, -82.364
1604.8000, -78.266
1604.9000, -84.539
1605.0000,-210.000
1605.1000, -82.444
1605.2000, -79.503
1605.3000, -93.081
1605.4000, -79.546
1605.5000, -89.351
1605.6000, -78.074
1605.7000, -87.069
1605.8000, -80.101
1605.9000,-210.000
1606.0000, -81.134
1606.1000, -89.550
1606.2000, -81.443
1606.3000, -83.784
1606.4000, -80.054
1606.5000, -86.764
1606.6000, -80.810
1606.7000,-210.000
1606.8000, -82.112
1606.9000, -82.391
1607.0000, -80.141
1607.1000, -83.932
1607.2000, -82.791
1607.3000, -81.141
1607.4000, -82.129
1607.5000, -82.754
1607.6000, -84.977
1607.7000, -82.945
1607.8000, -82.998
1607.9000, -83.266
1608.0000, -82.944
1608.1000, -80.040
1608.2000, -80.740
1608.3000,-210.000
1608.4000, -82.589
1608.5000, -81.486
1608.6000, -83.448
1608.7000, -81.450
1608.8000, -81.101
1608.9000, -83.683
1609.0000, -81.871
1609.1000, -87.295
1609.2000, -79.434
1609.3000, -84.835
1609.4000, -82.756
1609.5000, -79.838
1609.6000, -81.890
1609.7000, -82.784
1609.8000, -82.141
1609.9000, -81.353
1610.0000, -82.384
1610.1000, -85.209
1610.2000, -78.701
1610.3000, -84.395
1610.4000, -84.133
1610.5000, -83.067
1610.6000, -80.707
1610.7000, -80.300
1610.8000, -81.074
1610.9000, -82.531
1611.0000, -82.923
1611.1000, -79.681
1611.2000, -86.154
1611.3000, -80.801
1611.4000, -81.935
1611.5000, -81.612
1611.6000, -80.413
1611.7000, -85.409
1611.8000, -81.843
1611.9000, -81.104
1612.0000, -81.955
1612.1000, -85.520
1612.2000, -78.821
1612.3000, -81.047
1612.4000, -82.470
1612.5000, -80.666
1612.6000, -82.450
1612.7000, -81.078
1612.8000, -80.408
1612.9000, -83.612
1613.0000, -83.825
1613.1000, -81.546
1613.2000, -85.131
1613.3000, -80.483
1613.4000, -81.555
1613.5000, -93.649
1613.6000, -80.222
1613.7000, -83.472
1613.8000, -83.998
1613.9000, -83.758
1614.0000, -81.104
1614.1000, -85.200
1614.2000, -80.978
1614.3000, -82.939
1614.4000, -82.622
1614.5000, -80.407
1614.6000, -81.352
1614.7000, -86.568
1614.8000, -82.163
1614.9000, -81.758
1615.0000, -81.139
1615.1000, -79.495
1615.2000, -89.964
1615.3000, -80.763
1615.4000, -82.288
1615.5000, -82.619
1615.6000, -86.095
1615.7000, -80.720
1615.8000, -79.793
1615.9000,-210.000
1616.0000, -78.177
1616.1000, -84.536
1616.2000, -84.207
1616.3000, -79.673
1616.4000, -86.434
1616.5000, -81.488
1616.6000, -79.724
1616.7000, -85.162
1616.8000, -81.926
1616.9000, -78.922
1617.0000, -79.314
1617.1000, -80.602
1617.2000, -77.469
1617.3000, -81.352
1617.4000, -78.963
1617.5000, -84.082
1617.6000, -78.052
1617.7000, -79.892
1617.8000, -81.252
1617.9000, -78.310
1618.0000, -77.979
1618.1000, -77.839
1618.2000, -82.942
1618.3000, -78.965
1618.4000, -79.110
1618.5000, -78.731
1618.6000, -78.405
1618.7000, -76.871
1618.8000, -79.145
1618.9000, -77.305
1619.0000, -79.291
1619.1000, -77.818
1619.2000, -77.107
1619.3000, -78.225
1619.4000, -76.847
1619.5000, -77.182
1619.6000, -78.274
1619.7000, -77.267
1619.8000, -77.204
1619.9000, -81.116
1620.0000, -77.534
1620.1000, -79.232
1620.2000, -81.981
1620.3000, -80.452
1620.4000, -81.844
1620.5000, -82.963
1620.6000, -81.298
1620.7000, -82.059
1620.8000, -83.237
1620.9000, -81.962
1621.0000, -90.918
1621.1000, -86.888
1621.2000, -81.819
1621.3000, -83.143
1621.4000, -81.905
1621.5000, -89.509
1621.6000, -80.755
1621.7000, -79.248
1621.8000, -83.806
1621.9000, -80.613
1622.0000, -79.103
1622.1000,-210.000
1622.2000, -80.249
1622.3000, -83.545
1622.4000, -85.661
1622.5000, -81.013
1622.6000, -81.344
1622.7000, -83.414
1622.8000, -81.385
1622.9000, -81.381
1623.0000, -81.547
1623.1000, -82.387
1623.2000, -81.371
1623.3000, -81.673
1623.4000, -81.621
1623.5000, -82.098
1623.6000, -81.262
1623.7000, -84.240
1623.8000, -81.952
1623.9000, -82.632
1624.0000, -79.838
1624.1000, -81.212
1624.2000, -79.876
1624.3000,-210.000
1624.4000, -83.434
1624.5000, -81.457
1624.6000, -82.212
1624.7000,-210.000
1624.8000, -79.996
1624.9000, -79.812
1625.0000, -82.330
1625.1000,-210.000
1625.2000, -82.454
1625.3000, -83.300
1625.4000, -81.656
1625.5000, -84.288
1625.6000, -82.360
1625.7000, -87.354
1625.8000, -79.955
1625.9000, -88.996
1626.0000, -81.708
1626.1000, -84.076
1626.2000, -81.687
1626.3000, -84.920
1626.4000, -99.160
1626.5000, -79.760
1626.6000, -77.767
1626.7000,-210.000
1626.8000, -82.597
1626.9000, -80.193
1627.0000, -80.548
1627.1000, -79.343
1627.2000, -82.823
1627.3000, -84.619
1627.4000, -80.306
1627.5000,-210.000
1627.6000, -78.762
1627.7000, -85.654
1627.8000, -89.878
1627.9000, -79.373
1628.0000, -89.799
1628.1000, -79.862
1628.2000, -82.566
1628.3000, -86.975
1628.4000, -82.235
1628.5000, -80.087
1628.6000, -79.266
1628.7000, -92.997
1628.8000, -83.110
1628.9000, -83.529
1629.0000,-210.000
1629.1000, -80.580
1629.2000, -80.929
1629.3000, -80.569
1629.4000, -87.414
1629.5000, -81.768
1629.6000, -81.557
1629.7000, -83.970
1629.8000, -81.020
1629.9000, -78.664
1630.0000, -91.196
1630.1000, -83.093
1630.2000, -79.145
1630.3000, -86.829
1630.4000, -80.613
1630.5000, -81.885
1630.6000, -80.214
1630.7000, -82.013
1630.8000, -80.753
1630.9000,-104.026
1631.0000, -78.572
1631.1000, -81.957
1631.2000, -81.098
1631.3000, -78.746
1631.4000, -81.744
1631.5000, -87.298
1631.6000, -83.134
1631.7000,-210.000
1631.8000, -81.708
1631.9000, -79.708
1632.0000, -84.837
1632.1000,-210.000
1632.2000, -77.547
1632.3000,-210.000
1632.4000, -79.627
1632.5000, -89.387
1632.6000, -86.576
1632.7000, -77.870
1632.8000, -79.571
1632.9000, -87.394
1633.0000, -78.902
1633.1000, -80.766
1633.2000, -82.163
1633.3000, -81.989
1633.4000, -82.627
1633.5000, -79.938
1633.6000, -83.583
1633.7000, -80.089
1633.8000, -85.320
1633.9000, -94.561
1634.0000, -80.864
1634.1000, -83.029
1634.2000, -77.836
1634.3000, -81.861
1634.4000,-210.000
1634.5000, -78.123
1634.6000, -85.164
1634.7000, -82.867
1634.8000, -81.937
1634.9000, -79.400
1635.0000,-210.000
1635.1000, -77.933
1635.2000, -80.178
1635.3000, -79.679
1635.4000,-210.000
1635.5000, -93.120
1635.6000, -75.976
1635.7000,-210.000
1635.8000, -78.651
1635.9000, -85.665
1636.0000, -88.306
1636.1000, -79.244
1636.2000, -79.725
1636.3000,-210.000
1636.4000, -79.127
1636.5000, -92.324
1636.6000, -79.898
1636.7000, -79.860
1636.8000, -79.730
1636.9000, -79.246
1637.0000, -80.243
1637.1000, -79.526
1637.2000, -84.706
1637.3000, -79.945
1637.4000, -85.650
1637.5000, -76.950
1637.6000, -79.341
1637.7000, -83.982
1637.8000, -83.876
1637.9000, -81.827
1638.0000, -82.299
1638.1000, -81.796
1638.2000, -77.108
1638.3000, -79.607
1638.4000, -78.839
1638.5000, -79.126
1638.6000, -80.008
1638.7000,-210.000
1638.8000, -78.890
1638.9000, -79.769
1639.0000, -89.611
1639.1000, -82.512
1639.2000, -81.755
1639.3000, -78.790
1639.4000,-210.000
1639.5000, -78.535
1639.6000,-210.000
1639.7000, -80.770
1639.8000, -78.848
1639.9000, -90.263
1640.0000, -77.164
1640.1000, -77.324
1640.2000,-210.000
1640.3000, -85.996
1640.4000, -84.624
1640.5000, -79.986
1640.6000, -79.268
1640.7000, -80.570
1640.8000, -80.971
1640.9000, -85.159
1641.0000, -83.672
1641.1000, -78.931
1641.2000, -80.708
1641.3000, -85.006
1641.4000, -80.361
1641.5000, -78.648
1641.6000, -79.649
1641.7000, -82.926
1641.8000, -78.022
1641.9000, -86.989
1642.0000, -74.537
1642.1000, -81.108
1642.2000, -95.396
1642.3000, -85.690
1642.4000, -77.808
1642.5000, -83.783
1642.6000, -78.720
1642.7000, -77.408
1642.8000, -87.720
1642.9000, -80.708
1643.0000, -79.206
1643.1000, -84.697
1643.2000, -78.656
1643.3000, -76.941
1643.4000, -78.257
1643.5000,-210.000
1643.6000, -76.528
1643.7000, -82.505
1643.8000, -79.626
1643.9000, -85.529
1644.0000, -78.754
1644.1000, -82.160
1644.2000, -78.930
1644.3000,-210.000
1644.4000, -78.873
1644.5000, -82.307
1644.6000, -77.898
1644.7000, -79.143
1644.8000, -79.032
1644.9000, -77.214
1645.0000, -85.184
1645.1000, -78.015
1645.2000, -78.450
1645.3000, -77.199
1645.4000, -82.489
1645.5000, -76.451
1645.6000, -77.253
1645.7000, -81.044
1645.8000, -81.429
1645.9000, -84.086
1646.0000, -78.932
1646.1000, -79.591
1646.2000, -78.031
1646.3000, -80.285
1646.4000, -76.995
1646.5000, -77.746
1646.6000, -80.689
1646.7000, -77.599
1646.8000, -78.085
1646.9000, -81.787
1647.0000, -91.850
1647.1000, -79.853
1647.2000, -78.289
1647.3000, -79.784
1647.4000, -80.200
1647.5000, -81.264
1647.6000, -80.184
1647.7000, -78.550
1647.8000,-210.000
1647.9000, -75.553
1648.0000, -78.311
1648.1000, -81.064
1648.2000, -77.532
1648.3000, -81.568
1648.4000, -77.488
1648.5000, -77.893
1648.6000, -79.424
1648.7000, -86.652
1648.8000, -79.164
1648.9000, -78.024
1649.0000, -79.936
1649.1000, -78.053
1649.2000, -84.747
1649.3000, -76.541
1649.4000, -76.328
1649.5000, -80.618
1649.6000, -77.428
1649.7000, -81.713
1649.8000, -77.327
1649.9000, -77.128
1650.0000, -77.333
1650.1000,-210.000
1650.2000, -74.535
1650.3000, -80.665
1650.4000, -85.981
1650.5000, -74.445
1650.6000, -83.155
1650.7000, -74.997
1650.8000, -78.378
1650.9000, -78.934
1651.0000, -73.318
1651.1000,-210.000
1651.2000, -75.399
1651.3000, -74.435
1651.4000, -79.980
1651.5000, -78.902
1651.6000, -81.455
1651.7000, -76.528
1651.8000, -79.735
1651.9000, -76.645
1652.0000, -81.946
1652.1000, -83.342
1652.2000, -77.050
1652.3000, -80.369
1652.4000, -77.955
1652.5000, -78.318
1652.6000, -80.157
1652.7000, -78.703
1652.8000, -75.367
1652.9000, -77.565
1653.0000,-210.000
1653.1000, -76.013
1653.2000, -75.046
1653.3000, -83.268
1653.4000, -76.213
1653.5000, -75.396
1653.6000, -81.644
1653.7000, -75.128
1653.8000,-210.000
1653.9000, -74.516
1654.0000, -80.302
1654.1000, -76.610
1654.2000,-210.000
1654.3000, -73.605
1654.4000, -74.591
1654.5000, -77.669
1654.6000, -76.124
1654.7000, -74.512
1654.8000, -83.504
1654.9000, -75.097
1655.0000,-210.000
1655.1000, -78.324
1655.2000, -77.901
1655.3000, -76.818
1655.4000, -75.565
1655.5000, -79.467
1655.6000, -79.139
1655.7000, -77.681
1655.8000, -71.859
1655.9000, -75.619
1656.0000,-210.000
1656.1000, -72.802
1656.2000, -77.946
1656.3000, -81.135
1656.4000,-210.000
1656.5000, -73.874
1656.6000, -78.198
1656.7000, -74.650
1656.8000, -85.939
1656.9000, -75.812
1657.0000, -87.544
1657.1000, -78.444
1657.2000, -77.153
1657.3000, -80.009
1657.4000, -81.803
1657.5000, -74.000
1657.6000, -76.148
1657.7000, -76.178
1657.8000, -75.936
1657.9000, -74.807
1658.0000, -75.370
1658.1000,-210.000
1658.2000, -76.940
1658.3000, -72.581
1658.4000,-210.000
1658.5000, -72.345
1658.6000, -80.704
1658.7000, -79.623
1658.8000,-210.000
1658.9000, -79.324
1659.0000, -73.174
1659.1000, -75.705
1659.2000, -76.174
1659.3000, -72.622
1659.4000, -78.709
1659.5000, -81.554
1659.6000, -74.997
1659.7000, -75.021
1659.8000, -76.407
1659.9000, -78.709
1660.0000, -76.207
1660.1000, -79.131
1660.2000, -73.831
1660.3000,-210.000
1660.4000, -83.515
1660.5000, -71.005
1660.6000,-210.000
1660.7000, -73.031
1660.8000, -78.397
1660.9000, -79.922
1661.0000, -74.022
1661.1000, -76.722
1661.2000, -75.199
1661.3000, -76.282
1661.4000,-210.000
1661.5000, -75.290
1661.6000, -73.362
1661.7000, -74.977
1661.8000, -76.448
1661.9000, -78.548
1662.0000, -76.836
1662.1000, -73.188
1662.2000, -78.410
1662.3000, -74.710
1662.4000, -76.364
1662.5000, -78.848
1662.6000, -76.536
1662.7000, -73.877
1662.8000, -74.238
1662.9000, -77.507
1663.0000, -73.807
1663.1000, -79.485
1663.2000, -74.011
1663.3000, -78.230
1663.4000, -76.616
1663.5000, -73.702
1663.6000, -76.668
1663.7000, -74.711
1663.8000, -76.394
1663.9000, -75.289
1664.0000, -74.455
1664.1000, -76.792
1664.2000, -74.049
1664.3000, -72.165
1664.4000, -89.208
1664.5000, -76.513
1664.6000, -72.734
1664.7000, -77.523
1664.8000, -79.204
1664.9000, -72.726
1665.0000, -72.964
1665.1000,-210.000
1665.2000, -75.250
1665.3000, -78.477
1665.4000, -76.015
1665.5000,-210.000
1665.6000, -69.290
1665.7000,-210.000
1665.8000, -71.980
1665.9000,-210.000
1666.0000, -75.239
1666.1000, -78.012
1666.2000, -79.751
1666.3000, -71.862
1666.4000, -73.205
1666.5000, -71.242
1666.6000, -77.612
1666.7000, -74.024
1666.8000, -74.439
1666.9000, -71.263
1667.0000, -73.503
1667.1000, -75.800
1667.2000, -74.217
1667.3000, -82.030
1667.4000, -74.362
1667.5000, -73.920
1667.6000, -82.806
1667.7000, -71.504
1667.8000, -78.229
1667.9000, -78.738
1668.0000, -74.995
1668.1000, -72.060
1668.2000, -76.030
1668.3000, -80.923
1668.4000, -83.151
1668.5000, -72.355
1668.6000,-210.000
1668.7000, -78.458
1668.8000, -69.389
1668.9000,-210.000
1669.0000, -73.398
1669.1000,-210.000
1669.2000, -72.492
1669.3000, -70.677
1669.4000, -75.624
1669.5000, -77.579
1669.6000,-210.000
1669.7000, -72.863
1669.8000, -91.385
1669.9000, -72.596
1670.0000, -72.892
1670.1000, -73.196
1670.2000, -70.886
1670.3000, -77.106
1670.4000, -73.184
1670.5000, -71.105
1670.6000, -73.922
1670.7000, -75.343
1670.8000, -71.290
1670.9000, -74.522
1671.0000, -74.991
1671.1000, -71.621
1671.2000, -75.555
1671.3000, -70.294
1671.4000,-210.000
1671.5000, -74.217
1671.6000, -76.314
1671.7000, -83.616
1671.8000, -72.475
1671.9000, -71.760
1672.0000, -72.601
1672.1000, -86.051
1672.2000, -73.482
1672.3000, -77.972
1672.4000, -74.098
1672.5000, -71.747
1672.6000, -71.465
1672.7000, -74.543
1672.8000, -76.887
1672.9000, -71.791
1673.0000, -76.211
1673.1000, -82.455
1673.2000, -71.674
1673.3000, -70.196
1673.4000, -73.665
1673.5000, -75.289
1673.6000, -73.629
1673.7000, -78.148
1673.8000, -74.631
1673.9000, -73.253
1674.0000, -72.253
1674.1000,-210.000
1674.2000, -70.664
1674.3000, -76.633
1674.4000, -71.621
1674.5000,-210.000
1674.6000, -75.897
1674.7000, -69.800
1674.8000, -74.926
1674.9000, -66.194
1675.0000,-210.000
1675.1000, -72.925
1675.2000, -70.856
1675.3000, -70.855
1675.4000, -73.291
1675.5000, -74.430
1675.6000, -75.070
1675.7000, -73.100
1675.8000, -74.528
1675.9000, -70.698
1676.0000, -72.191
1676.1000, -71.282
1676.2000, -75.560
1676.3000, -73.454
1676.4000, -71.361
1676.5000, -69.014
1676.6000, -80.947
1676.7000, -74.365
1676.8000,-210.000
1676.9000, -75.606
1677.0000, -86.242
1677.1000, -72.304
1677.2000, -71.177
1677.3000, -72.327
1677.4000, -70.142
1677.5000,-210.000
1677.6000, -68.699
1677.7000, -72.004
1677.8000, -70.730
1677.9000, -70.735
1678.0000, -79.853
1678.1000, -68.634
1678.2000, -69.993
1678.3000, -77.117
1678.4000, -73.358
1678.5000, -69.511
1678.6000, -68.823
1678.7000,-210.000
1678.8000, -74.699
1678.9000, -74.987
1679.0000, -70.913
1679.1000, -68.710
1679.2000, -74.720
1679.3000, -70.159
1679.4000, -73.524
1679.5000, -74.099
1679.6000, -75.465
1679.7000, -70.682
1679.8000, -79.141
1679.9000, -79.091
1680.0000, -74.263
1680.1000,-210.000
1680.2000, -69.725
1680.3000, -83.588
1680.4000, -80.753
1680.5000, -83.293
1680.6000, -69.699
1680.7000, -67.860
1680.8000, -70.729
1680.9000, -69.151
1681.0000, -80.257
1681.1000, -81.270
1681.2000, -70.083
1681.3000, -68.077
1681.4000, -68.009
1681.5000, -75.370
1681.6000, -67.553
1681.7000, -74.901
1681.8000, -77.054
1681.9000,-210.000
1682.0000, -70.204
1682.1000, -73.162
1682.2000, -69.304
1682.3000, -72.502
1682.4000, -67.909
1682.5000, -68.937
1682.6000, -70.540
1682.7000, -70.751
1682.8000, -74.564
1682.9000, -68.473
1683.0000, -73.938
1683.1000, -72.061
1683.2000, -71.149
1683.3000, -70.534
1683.4000, -73.718
1683.5000, -74.611
1683.6000, -74.297
1683.7000, -69.506
1683.8000, -69.900
1683.9000, -71.895
1684.0000, -71.471
1684.1000, -68.662
1684.2000, -71.105
1684.3000, -70.512
1684.4000, -69.255
1684.5000, -75.711
1684.6000, -70.205
1684.7000,-210.000
1684.8000, -71.870
1684.9000,-210.000
1685.0000, -68.790
1685.1000, -68.695
1685.2000, -71.096
1685.3000, -72.033
1685.4000, -70.847
1685.5000, -71.314
1685.6000, -66.746
1685.7000,-210.000
1685.8000, -66.716
1685.9000, -72.431
1686.0000, -82.854
1686.1000, -70.060
1686.2000, -88.753
1686.3000, -70.371
1686.4000, -68.555
1686.5000, -76.447
1686.6000, -72.255
1686.7000, -67.068
1686.8000,-210.000
1686.9000, -70.952
1687.0000, -67.927
1687.1000, -72.451
1687.2000, -67.972
1687.3000,-210.000
1687.4000, -70.087
1687.5000, -69.697
1687.6000, -67.808
1687.7000, -70.463
1687.8000, -69.537
1687.9000, -67.727
1688.0000, -70.787
1688.1000, -64.961
1688.2000,-210.000
1688.3000, -64.469
1688.4000, -63.363
1688.5000,-210.000
1688.6000, -64.692
1688.7000, -69.361
1688.8000, -69.104
1688.9000, -70.685
1689.0000,-210.000
1689.1000, -67.258
1689.2000, -74.421
1689.3000,-210.000
1689.4000, -62.532
1689.5000, -71.268
1689.6000, -69.736
1689.7000, -68.741
1689.8000,-210.000
1689.9000,-210.000
1690.0000, -67.814
1690.1000, -67.385
1690.2000, -68.847
1690.3000, -68.225
1690.4000, -80.452
1690.5000, -68.787
1690.6000, -65.860
1690.7000, -71.697
1690.8000, -68.101
1690.9000, -74.810
1691.0000, -66.427
1691.1000, -69.030
1691.2000, -67.073
1691.3000,-210.000
1691.4000,-210.000
1691.5000, -65.922
1691.6000,-210.000
1691.7000,-210.000
1691.8000, -65.897
1691.9000, -68.465
1692.0000, -66.889
1692.1000, -67.990
1692.2000, -66.976
1692.3000, -69.731
1692.4000, -72.749
1692.5000, -67.414
1692.6000, -70.612
1692.7000, -65.525
1692.8000, -68.060
1692.9000, -66.261
1693.0000,-210.000
1693.1000, -65.230
1693.2000, -79.555
1693.3000, -67.076
1693.4000, -67.855
1693.5000,-210.000
1693.6000, -67.975
1693.7000, -66.287
1693.8000, -64.481
1693.9000,-210.000
1694.0000, -69.376
1694.1000, -68.928
1694.2000, -67.362
1694.3000, -67.349
1694.4000, -73.572
1694.5000, -67.351
1694.6000, -62.752
1694.7000,-210.000
1694.8000, -63.441
1694.9000,-210.000
1695.0000, -64.753
1695.1000, -64.349
1695.2000,-210.000
1695.3000, -63.877
1695.4000, -65.218
1695.5000,-210.000
1695.6000, -71.505
1695.7000, -68.795
1695.8000,-210.000
1695.9000, -69.214
1696.0000, -69.839
1696.1000, -70.473
1696.2000, -66.005
1696.3000,-210.000
1696.4000, -65.799
1696.5000, -66.974
1696.6000, -71.959
1696.7000, -65.969
1696.8000, -66.661
1696.9000, -70.216
1697.0000, -64.425
1697.1000, -68.030
1697.2000, -64.722
1697.3000, -70.040
1697.4000, -61.979
1697.5000, -65.067
1697.6000,-210.000
1697.7000, -67.569
1697.8000, -70.966
1697.9000, -65.978
1698.0000, -71.181
1698.1000, -81.900
1698.2000, -66.419
1698.3000, -67.248
1698.4000, -70.505
1698.5000, -64.744
1698.6000, -78.460
1698.7000, -70.031
1698.8000, -73.310
1698.9000, -65.479
1699.0000, -67.450
1699.1000, -67.272
1699.2000, -64.458
1699.3000, -67.510
1699.4000, -73.413
1699.5000, -67.706
1699.6000, -65.677
1699.7000, -62.530
1699.8000, -69.886
1699.9000, -66.633
1700.0000, -65.227
