70BCSV 	
// AQ6370B OPTICAL SPECTRUM ANALYZER //                 
25
"CTRWL",1300.000000
"SPAN", 800.000000
"START WL", 900.000000
"STOP WL",1700.000000
"WLFREQ", 0
"REFL",-17.2
"LSCL",10.0
"RESLN",0.500
"AVG",   1
"SMPLAUTO",      1
"SMPL",       8001
"SMPLINTVL",0.1000
"HIGH1"
"MEAS"
"LSUNT",0
"NMSKH","OFF"
"RESCOR",0
"RESPARM", 9740
"FREQPARM", 9740






"[TRACE DATA]"
 900.0000, -75.255
 900.1000,-210.000
 900.2000, -74.036
 900.3000,-210.000
 900.4000,-210.000
 900.5000, -74.297
 900.6000, -82.305
 900.7000, -74.837
 900.8000, -74.688
 900.9000, -74.149
 901.0000, -77.290
 901.1000,-210.000
 901.2000, -76.524
 901.3000, -81.542
 901.4000, -86.260
 901.5000, -74.484
 901.6000, -73.941
 901.7000, -71.654
 901.8000, -81.593
 901.9000, -77.182
 902.0000, -75.781
 902.1000, -72.554
 902.2000, -75.088
 902.3000, -72.673
 902.4000,-210.000
 902.5000, -81.183
 902.6000, -77.463
 902.7000, -74.162
 902.8000, -73.530
 902.9000,-210.000
 903.0000, -72.812
 903.1000, -73.350
 903.2000,-210.000
 903.3000, -72.671
 903.4000, -76.568
 903.5000, -76.582
 903.6000, -72.935
 903.7000,-210.000
 903.8000, -72.282
 903.9000, -81.830
 904.0000, -71.067
 904.1000, -74.518
 904.2000, -81.657
 904.3000, -78.511
 904.4000, -82.930
 904.5000, -73.065
 904.6000, -72.019
 904.7000, -75.047
 904.8000, -75.107
 904.9000, -77.519
 905.0000, -79.677
 905.1000, -70.376
 905.2000,-210.000
 905.3000, -76.130
 905.4000, -76.713
 905.5000,-210.000
 905.6000, -73.046
 905.7000, -71.519
 905.8000,-210.000
 905.9000, -74.749
 906.0000, -77.375
 906.1000,-210.000
 906.2000, -76.217
 906.3000, -88.365
 906.4000, -92.422
 906.5000, -75.954
 906.6000, -73.980
 906.7000,-210.000
 906.8000, -75.233
 906.9000, -73.469
 907.0000, -72.580
 907.1000, -76.185
 907.2000, -77.348
 907.3000, -74.170
 907.4000, -78.850
 907.5000, -82.265
 907.6000, -76.002
 907.7000, -76.420
 907.8000, -74.381
 907.9000, -75.918
 908.0000, -73.068
 908.1000, -73.959
 908.2000,-210.000
 908.3000, -79.027
 908.4000, -74.052
 908.5000, -75.253
 908.6000, -74.305
 908.7000,-210.000
 908.8000, -76.674
 908.9000, -72.491
 909.0000, -78.398
 909.1000, -76.218
 909.2000, -74.897
 909.3000,-210.000
 909.4000, -73.291
 909.5000, -77.080
 909.6000, -85.137
 909.7000, -75.782
 909.8000, -73.923
 909.9000, -79.890
 910.0000, -78.007
 910.1000, -77.190
 910.2000, -74.888
 910.3000, -75.647
 910.4000, -77.006
 910.5000, -73.995
 910.6000, -83.011
 910.7000, -82.685
 910.8000, -76.402
 910.9000, -77.816
 911.0000, -76.052
 911.1000, -73.355
 911.2000, -75.465
 911.3000, -74.158
 911.4000,-210.000
 911.5000, -77.468
 911.6000, -75.761
 911.7000, -75.766
 911.8000, -78.059
 911.9000, -76.490
 912.0000, -73.991
 912.1000, -73.165
 912.2000,-210.000
 912.3000, -75.393
 912.4000, -73.572
 912.5000, -81.907
 912.6000, -75.050
 912.7000, -78.035
 912.8000, -70.922
 912.9000,-210.000
 913.0000, -75.015
 913.1000, -74.235
 913.2000, -75.268
 913.3000, -76.021
 913.4000, -73.077
 913.5000,-210.000
 913.6000, -74.742
 913.7000, -75.610
 913.8000, -79.912
 913.9000,-210.000
 914.0000, -76.946
 914.1000, -75.170
 914.2000, -80.749
 914.3000, -77.253
 914.4000,-210.000
 914.5000, -75.315
 914.6000, -71.799
 914.7000, -87.661
 914.8000, -81.267
 914.9000, -78.819
 915.0000,-210.000
 915.1000, -73.694
 915.2000, -77.301
 915.3000, -84.405
 915.4000, -76.735
 915.5000, -83.151
 915.6000, -75.927
 915.7000, -78.958
 915.8000, -76.958
 915.9000, -73.899
 916.0000, -83.156
 916.1000, -74.900
 916.2000, -81.719
 916.3000, -77.078
 916.4000, -75.153
 916.5000, -79.845
 916.6000, -74.091
 916.7000, -77.378
 916.8000, -82.100
 916.9000, -78.879
 917.0000, -74.258
 917.1000, -79.739
 917.2000, -77.329
 917.3000, -78.737
 917.4000,-210.000
 917.5000, -74.981
 917.6000, -73.913
 917.7000, -87.607
 917.8000,-210.000
 917.9000, -75.088
 918.0000, -78.818
 918.1000, -77.168
 918.2000, -78.467
 918.3000,-210.000
 918.4000, -76.165
 918.5000, -76.223
 918.6000, -79.927
 918.7000, -78.499
 918.8000, -80.143
 918.9000, -74.224
 919.0000, -89.951
 919.1000, -73.376
 919.2000, -77.490
 919.3000,-210.000
 919.4000,-210.000
 919.5000, -73.542
 919.6000, -77.779
 919.7000, -73.487
 919.8000, -77.286
 919.9000, -79.611
 920.0000,-210.000
 920.1000, -70.669
 920.2000, -78.436
 920.3000, -75.172
 920.4000, -89.809
 920.5000,-210.000
 920.6000,-210.000
 920.7000, -79.060
 920.8000, -86.090
 920.9000,-210.000
 921.0000, -74.528
 921.1000, -86.652
 921.2000, -74.761
 921.3000, -78.612
 921.4000, -76.557
 921.5000, -73.094
 921.6000,-210.000
 921.7000,-210.000
 921.8000, -80.698
 921.9000, -78.806
 922.0000, -77.063
 922.1000, -78.497
 922.2000, -82.666
 922.3000, -77.963
 922.4000,-210.000
 922.5000, -75.214
 922.6000, -76.333
 922.7000, -77.831
 922.8000, -77.180
 922.9000, -86.317
 923.0000,-210.000
 923.1000, -75.663
 923.2000, -88.717
 923.3000, -75.787
 923.4000,-210.000
 923.5000, -83.085
 923.6000, -81.731
 923.7000, -82.434
 923.8000, -83.014
 923.9000, -76.963
 924.0000, -75.397
 924.1000, -76.073
 924.2000,-210.000
 924.3000, -86.557
 924.4000, -83.334
 924.5000,-210.000
 924.6000, -77.159
 924.7000, -82.991
 924.8000, -81.936
 924.9000, -77.544
 925.0000, -88.503
 925.1000, -76.917
 925.2000,-210.000
 925.3000, -73.785
 925.4000, -76.970
 925.5000, -77.599
 925.6000,-210.000
 925.7000, -76.231
 925.8000, -77.370
 925.9000, -77.993
 926.0000, -78.404
 926.1000, -78.395
 926.2000, -87.920
 926.3000, -78.244
 926.4000, -77.368
 926.5000, -82.966
 926.6000, -77.963
 926.7000, -84.967
 926.8000, -79.097
 926.9000, -82.581
 927.0000, -82.198
 927.1000, -77.084
 927.2000, -83.288
 927.3000, -77.606
 927.4000, -76.685
 927.5000, -79.511
 927.6000, -79.334
 927.7000, -75.589
 927.8000,-210.000
 927.9000, -78.443
 928.0000, -86.363
 928.1000, -80.677
 928.2000, -76.198
 928.3000, -78.747
 928.4000, -83.602
 928.5000, -80.773
 928.6000, -79.645
 928.7000, -77.583
 928.8000, -78.240
 928.9000, -77.529
 929.0000, -77.812
 929.1000,-210.000
 929.2000, -82.233
 929.3000, -75.290
 929.4000,-210.000
 929.5000,-210.000
 929.6000, -78.693
 929.7000, -75.231
 929.8000, -78.257
 929.9000, -79.714
 930.0000, -77.019
 930.1000, -76.453
 930.2000, -79.658
 930.3000,-210.000
 930.4000, -76.941
 930.5000, -77.816
 930.6000, -75.239
 930.7000,-210.000
 930.8000, -92.996
 930.9000, -77.515
 931.0000, -78.565
 931.1000, -92.237
 931.2000, -76.234
 931.3000, -77.397
 931.4000, -77.562
 931.5000, -77.667
 931.6000, -79.274
 931.7000, -77.096
 931.8000,-210.000
 931.9000,-210.000
 932.0000, -79.129
 932.1000, -79.892
 932.2000, -76.210
 932.3000,-210.000
 932.4000, -80.389
 932.5000, -80.290
 932.6000, -83.331
 932.7000, -83.062
 932.8000, -75.446
 932.9000, -79.954
 933.0000, -75.292
 933.1000,-210.000
 933.2000, -77.163
 933.3000, -86.155
 933.4000, -76.125
 933.5000, -81.518
 933.6000,-210.000
 933.7000,-210.000
 933.8000,-210.000
 933.9000, -76.323
 934.0000, -79.069
 934.1000, -77.188
 934.2000, -86.542
 934.3000, -75.544
 934.4000, -77.140
 934.5000,-210.000
 934.6000, -78.941
 934.7000,-210.000
 934.8000, -78.114
 934.9000, -80.398
 935.0000, -76.544
 935.1000,-107.373
 935.2000, -81.208
 935.3000, -85.783
 935.4000, -81.876
 935.5000, -79.025
 935.6000, -80.310
 935.7000, -78.651
 935.8000, -79.401
 935.9000,-210.000
 936.0000, -77.888
 936.1000, -82.301
 936.2000, -75.778
 936.3000, -78.533
 936.4000,-210.000
 936.5000, -77.969
 936.6000, -88.351
 936.7000, -75.387
 936.8000, -83.311
 936.9000,-210.000
 937.0000, -77.396
 937.1000, -78.309
 937.2000, -84.297
 937.3000, -81.210
 937.4000, -81.211
 937.5000, -80.971
 937.6000, -78.097
 937.7000, -80.765
 937.8000, -78.488
 937.9000, -79.061
 938.0000, -77.047
 938.1000, -75.229
 938.2000, -76.602
 938.3000, -76.265
 938.4000, -78.818
 938.5000, -74.295
 938.6000, -80.598
 938.7000, -77.201
 938.8000, -76.854
 938.9000, -75.761
 939.0000, -74.886
 939.1000, -76.888
 939.2000, -80.180
 939.3000, -76.574
 939.4000, -78.037
 939.5000, -78.184
 939.6000,-210.000
 939.7000, -76.521
 939.8000, -78.511
 939.9000, -79.061
 940.0000, -78.574
 940.1000, -74.745
 940.2000, -78.207
 940.3000,-210.000
 940.4000, -81.340
 940.5000, -77.522
 940.6000, -84.545
 940.7000, -77.869
 940.8000, -86.430
 940.9000, -80.485
 941.0000, -81.317
 941.1000, -80.429
 941.2000, -88.025
 941.3000, -80.128
 941.4000, -86.385
 941.5000,-210.000
 941.6000, -77.751
 941.7000, -78.457
 941.8000, -78.525
 941.9000, -78.638
 942.0000, -82.365
 942.1000,-210.000
 942.2000, -83.630
 942.3000, -80.486
 942.4000, -76.976
 942.5000, -80.162
 942.6000, -77.994
 942.7000, -79.710
 942.8000, -80.373
 942.9000, -83.611
 943.0000, -77.420
 943.1000, -78.896
 943.2000, -83.660
 943.3000, -80.681
 943.4000, -76.856
 943.5000, -84.131
 943.6000, -78.466
 943.7000, -83.577
 943.8000, -79.710
 943.9000, -85.538
 944.0000, -76.774
 944.1000, -76.265
 944.2000, -88.674
 944.3000, -79.999
 944.4000, -80.558
 944.5000, -75.385
 944.6000, -80.079
 944.7000,-210.000
 944.8000, -76.756
 944.9000, -79.921
 945.0000, -77.409
 945.1000, -77.586
 945.2000, -74.891
 945.3000,-210.000
 945.4000, -77.801
 945.5000, -73.774
 945.6000, -74.601
 945.7000, -74.387
 945.8000, -74.595
 945.9000, -72.209
 946.0000, -72.706
 946.1000, -74.618
 946.2000, -72.073
 946.3000, -71.683
 946.4000, -75.724
 946.5000, -75.316
 946.6000, -73.377
 946.7000, -75.137
 946.8000, -74.330
 946.9000, -76.721
 947.0000, -78.552
 947.1000, -79.880
 947.2000, -81.288
 947.3000, -76.241
 947.4000, -77.344
 947.5000, -80.031
 947.6000, -79.130
 947.7000, -76.620
 947.8000, -78.942
 947.9000, -81.653
 948.0000, -80.964
 948.1000, -74.531
 948.2000, -77.094
 948.3000, -79.764
 948.4000,-210.000
 948.5000,-210.000
 948.6000, -77.624
 948.7000, -83.029
 948.8000, -87.816
 948.9000, -81.442
 949.0000, -77.206
 949.1000, -77.103
 949.2000, -78.222
 949.3000, -77.399
 949.4000,-210.000
 949.5000,-210.000
 949.6000, -77.730
 949.7000, -79.495
 949.8000, -77.481
 949.9000,-210.000
 950.0000,-210.000
 950.1000, -78.492
 950.2000, -79.220
 950.3000, -83.995
 950.4000, -84.258
 950.5000, -81.683
 950.6000, -80.968
 950.7000, -82.197
 950.8000, -79.910
 950.9000, -77.646
 951.0000,-210.000
 951.1000, -77.344
 951.2000,-210.000
 951.3000, -80.601
 951.4000,-210.000
 951.5000, -81.069
 951.6000, -77.072
 951.7000, -75.071
 951.8000, -81.723
 951.9000, -80.440
 952.0000, -87.999
 952.1000,-210.000
 952.2000,-210.000
 952.3000, -75.452
 952.4000, -83.623
 952.5000,-210.000
 952.6000, -85.152
 952.7000, -81.346
 952.8000,-210.000
 952.9000, -75.936
 953.0000, -81.545
 953.1000, -93.267
 953.2000, -86.071
 953.3000, -81.841
 953.4000, -82.180
 953.5000,-210.000
 953.6000, -81.657
 953.7000, -78.754
 953.8000, -85.267
 953.9000,-210.000
 954.0000, -82.017
 954.1000,-210.000
 954.2000, -94.372
 954.3000, -80.045
 954.4000, -77.072
 954.5000,-210.000
 954.6000, -78.450
 954.7000, -88.332
 954.8000, -80.912
 954.9000, -77.340
 955.0000, -80.613
 955.1000, -81.550
 955.2000, -92.154
 955.3000,-210.000
 955.4000, -78.730
 955.5000,-210.000
 955.6000, -77.257
 955.7000, -85.608
 955.8000, -85.750
 955.9000, -83.040
 956.0000, -81.264
 956.1000,-210.000
 956.2000, -82.440
 956.3000, -80.528
 956.4000, -79.625
 956.5000,-210.000
 956.6000, -82.784
 956.7000, -79.280
 956.8000, -80.384
 956.9000,-210.000
 957.0000,-108.894
 957.1000, -85.993
 957.2000, -81.387
 957.3000,-210.000
 957.4000, -78.386
 957.5000, -83.870
 957.6000, -80.533
 957.7000, -91.494
 957.8000, -83.360
 957.9000, -84.341
 958.0000, -78.178
 958.1000, -80.920
 958.2000, -81.061
 958.3000, -81.632
 958.4000, -85.869
 958.5000, -86.127
 958.6000, -77.583
 958.7000, -80.016
 958.8000, -84.669
 958.9000, -80.608
 959.0000, -83.860
 959.1000, -83.200
 959.2000, -79.344
 959.3000, -78.887
 959.4000, -80.709
 959.5000, -81.715
 959.6000, -81.554
 959.7000, -79.434
 959.8000, -82.537
 959.9000, -80.810
 960.0000,-210.000
 960.1000, -84.454
 960.2000, -78.587
 960.3000, -90.486
 960.4000, -78.662
 960.5000, -82.667
 960.6000, -90.406
 960.7000, -79.392
 960.8000, -89.329
 960.9000, -82.917
 961.0000, -85.621
 961.1000, -80.717
 961.2000, -79.183
 961.3000,-210.000
 961.4000, -78.372
 961.5000, -86.780
 961.6000, -82.706
 961.7000, -83.934
 961.8000, -79.412
 961.9000, -77.858
 962.0000, -80.477
 962.1000,-210.000
 962.2000, -78.976
 962.3000, -86.825
 962.4000,-210.000
 962.5000, -80.737
 962.6000, -79.168
 962.7000, -81.408
 962.8000, -91.144
 962.9000, -83.564
 963.0000, -76.353
 963.1000, -86.293
 963.2000, -78.710
 963.3000,-210.000
 963.4000, -83.719
 963.5000, -88.988
 963.6000, -76.111
 963.7000, -78.482
 963.8000,-210.000
 963.9000,-210.000
 964.0000, -85.996
 964.1000, -83.679
 964.2000, -83.591
 964.3000, -82.752
 964.4000, -78.809
 964.5000, -91.756
 964.6000, -80.666
 964.7000, -76.998
 964.8000, -83.840
 964.9000, -78.203
 965.0000,-210.000
 965.1000, -85.998
 965.2000, -82.809
 965.3000, -81.276
 965.4000, -80.305
 965.5000, -82.809
 965.6000, -82.156
 965.7000, -82.589
 965.8000, -83.824
 965.9000, -76.955
 966.0000, -84.593
 966.1000, -80.832
 966.2000,-210.000
 966.3000, -79.412
 966.4000, -80.590
 966.5000, -82.172
 966.6000, -82.119
 966.7000, -86.522
 966.8000,-210.000
 966.9000, -76.588
 967.0000, -78.195
 967.1000,-210.000
 967.2000, -87.477
 967.3000, -90.687
 967.4000,-210.000
 967.5000, -79.138
 967.6000, -81.174
 967.7000, -81.816
 967.8000, -83.317
 967.9000, -82.026
 968.0000, -78.024
 968.1000, -85.099
 968.2000,-210.000
 968.3000, -82.551
 968.4000, -79.229
 968.5000, -84.663
 968.6000, -78.339
 968.7000, -83.327
 968.8000,-210.000
 968.9000, -81.660
 969.0000, -76.106
 969.1000,-210.000
 969.2000, -79.557
 969.3000, -83.936
 969.4000, -78.228
 969.5000,-210.000
 969.6000, -85.444
 969.7000, -76.641
 969.8000,-210.000
 969.9000, -80.019
 970.0000,-210.000
 970.1000, -76.662
 970.2000, -79.779
 970.3000,-210.000
 970.4000, -80.196
 970.5000,-210.000
 970.6000, -81.590
 970.7000, -77.804
 970.8000, -77.171
 970.9000,-210.000
 971.0000,-210.000
 971.1000, -78.185
 971.2000, -80.793
 971.3000, -78.641
 971.4000, -85.838
 971.5000,-210.000
 971.6000, -80.586
 971.7000, -82.245
 971.8000, -78.625
 971.9000, -85.148
 972.0000, -82.162
 972.1000, -86.144
 972.2000, -77.609
 972.3000, -87.529
 972.4000, -80.543
 972.5000, -78.540
 972.6000, -87.169
 972.7000, -79.299
 972.8000,-210.000
 972.9000, -90.774
 973.0000, -76.748
 973.1000, -84.201
 973.2000,-210.000
 973.3000, -83.073
 973.4000, -79.254
 973.5000, -83.077
 973.6000, -84.317
 973.7000, -81.918
 973.8000, -79.022
 973.9000,-210.000
 974.0000,-210.000
 974.1000,-210.000
 974.2000, -75.110
 974.3000, -77.570
 974.4000, -85.351
 974.5000,-210.000
 974.6000, -84.534
 974.7000, -78.746
 974.8000,-210.000
 974.9000, -79.754
 975.0000,-210.000
 975.1000, -94.552
 975.2000, -84.348
 975.3000, -80.553
 975.4000, -84.714
 975.5000, -83.156
 975.6000, -89.957
 975.7000, -77.600
 975.8000, -81.136
 975.9000, -82.534
 976.0000,-210.000
 976.1000,-210.000
 976.2000, -79.249
 976.3000,-210.000
 976.4000, -77.042
 976.5000, -80.307
 976.6000, -77.153
 976.7000, -83.204
 976.8000, -87.974
 976.9000, -83.851
 977.0000, -91.465
 977.1000, -80.797
 977.2000, -80.354
 977.3000, -92.102
 977.4000,-210.000
 977.5000,-210.000
 977.6000, -78.550
 977.7000, -78.412
 977.8000, -81.214
 977.9000, -81.939
 978.0000, -80.053
 978.1000, -95.004
 978.2000, -82.487
 978.3000,-210.000
 978.4000, -97.832
 978.5000, -79.052
 978.6000, -89.953
 978.7000, -80.622
 978.8000,-210.000
 978.9000, -78.595
 979.0000, -89.490
 979.1000,-210.000
 979.2000, -80.573
 979.3000, -79.725
 979.4000,-210.000
 979.5000, -84.387
 979.6000, -82.329
 979.7000,-210.000
 979.8000, -77.003
 979.9000, -80.103
 980.0000,-124.458
 980.1000, -87.804
 980.2000, -77.114
 980.3000, -79.820
 980.4000,-210.000
 980.5000,-210.000
 980.6000, -75.359
 980.7000,-210.000
 980.8000, -77.278
 980.9000, -80.174
 981.0000, -80.404
 981.1000, -85.435
 981.2000, -93.783
 981.3000, -81.705
 981.4000, -77.457
 981.5000, -87.706
 981.6000,-210.000
 981.7000, -77.221
 981.8000,-210.000
 981.9000, -80.709
 982.0000, -79.271
 982.1000, -81.100
 982.2000,-210.000
 982.3000,-210.000
 982.4000, -78.477
 982.5000, -84.535
 982.6000, -78.780
 982.7000, -80.708
 982.8000, -88.105
 982.9000, -81.234
 983.0000, -79.978
 983.1000, -84.246
 983.2000, -86.352
 983.3000, -80.171
 983.4000, -79.618
 983.5000, -81.573
 983.6000, -85.111
 983.7000, -79.711
 983.8000, -82.058
 983.9000, -80.697
 984.0000, -78.630
 984.1000,-210.000
 984.2000, -82.121
 984.3000, -78.156
 984.4000,-210.000
 984.5000, -82.592
 984.6000,-210.000
 984.7000, -84.947
 984.8000, -79.375
 984.9000,-210.000
 985.0000, -91.642
 985.1000, -83.658
 985.2000, -79.531
 985.3000, -81.840
 985.4000, -97.250
 985.5000, -88.086
 985.6000, -81.499
 985.7000, -83.386
 985.8000, -89.819
 985.9000, -80.514
 986.0000, -79.524
 986.1000, -80.808
 986.2000, -86.014
 986.3000, -89.151
 986.4000, -82.125
 986.5000, -82.119
 986.6000, -83.284
 986.7000, -85.098
 986.8000, -77.901
 986.9000,-210.000
 987.0000, -80.757
 987.1000, -78.572
 987.2000, -82.158
 987.3000, -83.104
 987.4000,-210.000
 987.5000, -81.391
 987.6000, -77.852
 987.7000,-210.000
 987.8000, -80.580
 987.9000, -84.517
 988.0000, -79.080
 988.1000,-210.000
 988.2000,-210.000
 988.3000, -82.819
 988.4000, -89.134
 988.5000, -79.088
 988.6000,-210.000
 988.7000, -82.975
 988.8000, -82.105
 988.9000, -81.873
 989.0000, -83.926
 989.1000,-210.000
 989.2000, -81.313
 989.3000, -79.796
 989.4000, -80.673
 989.5000,-210.000
 989.6000, -84.910
 989.7000, -81.827
 989.8000, -88.661
 989.9000, -80.564
 990.0000, -94.233
 990.1000, -82.109
 990.2000, -82.883
 990.3000, -83.711
 990.4000,-100.402
 990.5000, -80.006
 990.6000,-210.000
 990.7000, -80.629
 990.8000, -88.806
 990.9000, -81.535
 991.0000, -86.403
 991.1000, -83.313
 991.2000, -80.374
 991.3000,-210.000
 991.4000, -78.137
 991.5000, -79.840
 991.6000, -88.220
 991.7000, -90.049
 991.8000, -83.979
 991.9000, -79.666
 992.0000, -87.858
 992.1000, -82.756
 992.2000, -80.425
 992.3000, -82.101
 992.4000, -85.593
 992.5000, -81.657
 992.6000, -81.401
 992.7000, -80.964
 992.8000, -82.467
 992.9000, -83.054
 993.0000, -88.400
 993.1000, -86.377
 993.2000, -81.558
 993.3000, -84.459
 993.4000, -80.734
 993.5000, -87.128
 993.6000, -89.882
 993.7000, -82.343
 993.8000, -80.725
 993.9000, -88.583
 994.0000, -82.911
 994.1000, -84.101
 994.2000, -83.507
 994.3000, -82.843
 994.4000, -81.237
 994.5000, -83.269
 994.6000, -83.761
 994.7000, -83.158
 994.8000, -88.675
 994.9000, -80.501
 995.0000,-103.599
 995.1000, -79.627
 995.2000, -82.720
 995.3000, -83.808
 995.4000, -81.353
 995.5000,-210.000
 995.6000, -87.685
 995.7000, -94.726
 995.8000, -81.801
 995.9000, -81.636
 996.0000, -86.427
 996.1000, -83.741
 996.2000,-102.211
 996.3000, -80.519
 996.4000, -84.361
 996.5000, -86.591
 996.6000, -82.759
 996.7000, -80.966
 996.8000, -79.095
 996.9000,-210.000
 997.0000, -84.356
 997.1000, -86.236
 997.2000, -83.368
 997.3000, -81.601
 997.4000, -83.655
 997.5000, -80.048
 997.6000, -84.637
 997.7000, -82.745
 997.8000, -81.139
 997.9000, -84.773
 998.0000, -80.122
 998.1000, -86.244
 998.2000, -82.103
 998.3000, -81.732
 998.4000, -81.007
 998.5000, -85.438
 998.6000, -80.926
 998.7000, -89.390
 998.8000, -87.687
 998.9000, -83.762
 999.0000, -83.880
 999.1000, -84.221
 999.2000, -82.003
 999.3000, -79.868
 999.4000,-210.000
 999.5000, -80.922
 999.6000, -87.389
 999.7000, -83.186
 999.8000, -80.841
 999.9000, -81.108
1000.0000, -84.587
1000.1000, -80.954
1000.2000, -81.684
1000.3000, -96.155
1000.4000, -98.557
1000.5000, -78.479
1000.6000, -82.725
1000.7000, -81.016
1000.8000, -79.977
1000.9000, -86.244
1001.0000, -79.602
1001.1000, -84.861
1001.2000, -80.682
1001.3000, -79.439
1001.4000, -90.526
1001.5000, -82.152
1001.6000, -81.811
1001.7000, -82.387
1001.8000, -81.232
1001.9000, -83.870
1002.0000,-210.000
1002.1000, -78.740
1002.2000, -80.705
1002.3000, -80.841
1002.4000,-210.000
1002.5000, -83.689
1002.6000, -82.317
1002.7000, -88.016
1002.8000, -78.583
1002.9000,-210.000
1003.0000, -78.370
1003.1000, -81.786
1003.2000, -85.129
1003.3000, -81.182
1003.4000, -82.705
1003.5000, -84.557
1003.6000, -87.237
1003.7000, -84.430
1003.8000, -78.291
1003.9000, -82.962
1004.0000, -88.886
1004.1000, -81.403
1004.2000, -79.712
1004.3000,-210.000
1004.4000, -85.457
1004.5000, -86.623
1004.6000, -83.538
1004.7000, -77.705
1004.8000, -84.099
1004.9000, -82.838
1005.0000, -81.858
1005.1000, -90.089
1005.2000, -80.577
1005.3000, -84.193
1005.4000, -82.671
1005.5000, -78.224
1005.6000, -84.604
1005.7000, -81.263
1005.8000, -83.451
1005.9000, -81.852
1006.0000, -84.787
1006.1000, -85.553
1006.2000, -79.392
1006.3000, -79.973
1006.4000, -95.523
1006.5000, -80.169
1006.6000, -83.238
1006.7000, -81.871
1006.8000, -79.672
1006.9000,-210.000
1007.0000, -78.427
1007.1000, -81.228
1007.2000, -84.878
1007.3000, -78.678
1007.4000, -89.596
1007.5000, -82.888
1007.6000, -79.391
1007.7000, -82.287
1007.8000, -81.701
1007.9000, -85.240
1008.0000, -80.497
1008.1000, -93.062
1008.2000, -81.744
1008.3000, -79.008
1008.4000, -79.756
1008.5000, -80.938
1008.6000, -81.907
1008.7000, -81.555
1008.8000, -79.896
1008.9000, -82.856
1009.0000, -83.494
1009.1000, -84.022
1009.2000, -83.314
1009.3000, -81.610
1009.4000, -81.602
1009.5000,-210.000
1009.6000, -78.915
1009.7000, -81.506
1009.8000, -80.632
1009.9000, -80.824
1010.0000, -88.624
1010.1000, -79.029
1010.2000, -78.912
1010.3000, -88.487
1010.4000, -82.207
1010.5000, -79.423
1010.6000, -79.667
1010.7000, -82.982
1010.8000, -81.054
1010.9000, -79.551
1011.0000, -80.169
1011.1000, -81.252
1011.2000, -84.404
1011.3000, -80.819
1011.4000, -86.020
1011.5000,-210.000
1011.6000,-210.000
1011.7000, -81.241
1011.8000, -79.022
1011.9000, -78.120
1012.0000, -83.712
1012.1000, -88.221
1012.2000, -77.407
1012.3000, -88.875
1012.4000, -82.876
1012.5000, -81.807
1012.6000,-210.000
1012.7000, -82.530
1012.8000, -79.109
1012.9000, -78.511
1013.0000, -88.139
1013.1000, -84.933
1013.2000, -83.160
1013.3000, -82.544
1013.4000, -78.790
1013.5000, -89.277
1013.6000, -83.160
1013.7000,-210.000
1013.8000, -78.542
1013.9000, -80.311
1014.0000, -80.073
1014.1000, -84.243
1014.2000, -81.018
1014.3000, -82.463
1014.4000, -96.179
1014.5000, -81.554
1014.6000, -77.568
1014.7000, -84.678
1014.8000, -80.042
1014.9000, -80.134
1015.0000, -76.806
1015.1000, -81.552
1015.2000,-210.000
1015.3000, -80.525
1015.4000, -84.069
1015.5000, -79.360
1015.6000, -82.531
1015.7000, -86.904
1015.8000, -83.834
1015.9000, -82.438
1016.0000, -81.140
1016.1000, -81.975
1016.2000, -85.854
1016.3000, -81.561
1016.4000, -81.833
1016.5000, -81.134
1016.6000, -79.761
1016.7000, -78.896
1016.8000, -82.415
1016.9000, -77.665
1017.0000, -78.363
1017.1000, -78.725
1017.2000,-210.000
1017.3000, -79.338
1017.4000, -79.032
1017.5000,-210.000
1017.6000, -81.171
1017.7000, -79.621
1017.8000, -83.373
1017.9000, -78.743
1018.0000, -79.286
1018.1000, -83.236
1018.2000, -89.299
1018.3000, -82.708
1018.4000, -76.208
1018.5000, -82.602
1018.6000,-210.000
1018.7000, -77.722
1018.8000, -84.193
1018.9000, -77.681
1019.0000,-210.000
1019.1000, -75.326
1019.2000, -80.766
1019.3000, -78.159
1019.4000, -81.882
1019.5000,-210.000
1019.6000, -79.763
1019.7000, -82.154
1019.8000, -78.362
1019.9000, -81.546
1020.0000, -82.410
1020.1000, -77.910
1020.2000, -97.057
1020.3000, -85.893
1020.4000, -77.084
1020.5000, -80.460
1020.6000, -78.453
1020.7000, -86.646
1020.8000, -78.634
1020.9000, -79.828
1021.0000, -80.364
1021.1000, -79.041
1021.2000, -79.701
1021.3000, -80.208
1021.4000, -79.347
1021.5000, -79.147
1021.6000, -84.299
1021.7000,-210.000
1021.8000, -81.572
1021.9000, -89.703
1022.0000, -77.600
1022.1000, -83.715
1022.2000, -82.143
1022.3000, -78.996
1022.4000, -79.874
1022.5000, -81.503
1022.6000, -83.436
1022.7000, -81.733
1022.8000, -78.203
1022.9000, -78.559
1023.0000, -80.986
1023.1000, -85.684
1023.2000, -78.692
1023.3000, -82.902
1023.4000, -80.982
1023.5000, -76.937
1023.6000, -82.059
1023.7000, -80.152
1023.8000, -80.729
1023.9000, -79.808
1024.0000, -79.919
1024.1000, -79.899
1024.2000, -82.154
1024.3000, -79.473
1024.4000, -80.342
1024.5000, -80.495
1024.6000, -82.818
1024.7000, -80.294
1024.8000, -79.529
1024.9000, -79.661
1025.0000, -78.870
1025.1000, -82.453
1025.2000, -79.793
1025.3000, -79.420
1025.4000, -81.349
1025.5000, -81.677
1025.6000,-100.577
1025.7000, -79.203
1025.8000, -80.511
1025.9000, -81.075
1026.0000, -85.358
1026.1000, -80.333
1026.2000, -80.509
1026.3000, -79.129
1026.4000, -79.933
1026.5000, -78.856
1026.6000, -81.205
1026.7000, -78.993
1026.8000, -86.196
1026.9000, -81.916
1027.0000, -81.595
1027.1000, -82.117
1027.2000, -79.226
1027.3000, -80.608
1027.4000, -80.064
1027.5000, -80.045
1027.6000, -79.572
1027.7000, -78.919
1027.8000, -85.197
1027.9000, -81.607
1028.0000, -78.715
1028.1000, -80.028
1028.2000, -80.843
1028.3000, -81.837
1028.4000, -81.979
1028.5000, -81.357
1028.6000, -78.468
1028.7000, -81.181
1028.8000, -84.650
1028.9000, -83.247
1029.0000, -80.698
1029.1000, -78.578
1029.2000, -80.493
1029.3000, -78.786
1029.4000, -81.640
1029.5000, -80.135
1029.6000, -78.296
1029.7000, -80.540
1029.8000, -79.817
1029.9000, -80.248
1030.0000, -77.972
1030.1000, -87.924
1030.2000, -81.028
1030.3000, -80.453
1030.4000, -84.316
1030.5000, -80.031
1030.6000, -80.410
1030.7000, -78.443
1030.8000, -77.724
1030.9000, -88.901
1031.0000, -81.297
1031.1000, -80.458
1031.2000, -80.615
1031.3000, -80.495
1031.4000, -79.209
1031.5000, -82.289
1031.6000, -84.729
1031.7000, -81.105
1031.8000, -78.764
1031.9000, -79.509
1032.0000, -79.704
1032.1000, -80.137
1032.2000, -82.490
1032.3000, -81.903
1032.4000, -81.002
1032.5000, -81.747
1032.6000, -78.490
1032.7000, -79.240
1032.8000, -80.422
1032.9000, -80.555
1033.0000, -79.652
1033.1000, -84.492
1033.2000, -79.085
1033.3000, -79.211
1033.4000, -78.147
1033.5000, -81.264
1033.6000, -78.655
1033.7000, -89.725
1033.8000, -80.575
1033.9000, -80.494
1034.0000, -79.417
1034.1000, -80.198
1034.2000, -81.976
1034.3000, -77.200
1034.4000, -82.585
1034.5000, -83.805
1034.6000, -77.280
1034.7000, -82.950
1034.8000, -79.102
1034.9000, -80.668
1035.0000, -84.503
1035.1000, -80.574
1035.2000, -79.595
1035.3000, -77.803
1035.4000, -81.326
1035.5000, -79.193
1035.6000, -82.584
1035.7000, -78.619
1035.8000, -81.030
1035.9000, -79.417
1036.0000, -81.271
1036.1000, -80.567
1036.2000, -80.908
1036.3000, -78.874
1036.4000, -80.218
1036.5000, -85.016
1036.6000, -82.535
1036.7000, -78.093
1036.8000, -79.854
1036.9000, -81.056
1037.0000, -79.772
1037.1000, -81.097
1037.2000, -79.832
1037.3000, -79.370
1037.4000, -83.977
1037.5000, -79.080
1037.6000, -82.622
1037.7000, -79.339
1037.8000, -79.965
1037.9000, -83.491
1038.0000, -79.692
1038.1000, -79.230
1038.2000, -78.770
1038.3000, -86.248
1038.4000, -78.590
1038.5000, -81.524
1038.6000, -79.142
1038.7000, -78.393
1038.8000, -81.657
1038.9000, -81.771
1039.0000, -84.625
1039.1000, -83.943
1039.2000, -78.423
1039.3000, -81.369
1039.4000, -77.676
1039.5000, -81.874
1039.6000, -81.989
1039.7000, -80.072
1039.8000, -81.007
1039.9000, -79.322
1040.0000, -81.462
1040.1000, -83.727
1040.2000, -84.159
1040.3000, -79.112
1040.4000, -81.063
1040.5000, -79.771
1040.6000, -79.119
1040.7000, -81.002
1040.8000, -79.526
1040.9000, -79.189
1041.0000, -94.675
1041.1000, -76.253
1041.2000, -80.408
1041.3000, -90.629
1041.4000, -87.183
1041.5000, -77.860
1041.6000,-210.000
1041.7000, -86.634
1041.8000, -77.418
1041.9000, -77.341
1042.0000, -88.497
1042.1000, -77.324
1042.2000, -87.186
1042.3000, -84.646
1042.4000, -76.287
1042.5000,-210.000
1042.6000, -81.545
1042.7000, -79.699
1042.8000, -78.353
1042.9000,-210.000
1043.0000, -81.996
1043.1000, -80.275
1043.2000, -78.509
1043.3000, -79.368
1043.4000, -83.793
1043.5000, -78.830
1043.6000, -80.440
1043.7000, -79.161
1043.8000, -80.286
1043.9000, -79.723
1044.0000, -77.011
1044.1000, -77.429
1044.2000, -77.970
1044.3000, -76.938
1044.4000, -76.448
1044.5000, -75.129
1044.6000, -72.760
1044.7000, -70.392
1044.8000, -69.226
1044.9000, -67.505
1045.0000, -66.392
1045.1000, -65.156
1045.2000, -64.129
1045.3000, -63.167
1045.4000, -62.417
1045.5000, -62.223
1045.6000, -62.245
1045.7000, -62.524
1045.8000, -62.886
1045.9000, -63.617
1046.0000, -64.841
1046.1000, -66.581
1046.2000, -68.561
1046.3000, -70.385
1046.4000, -72.211
1046.5000, -73.058
1046.6000, -75.495
1046.7000, -74.636
1046.8000, -80.040
1046.9000, -77.331
1047.0000, -77.820
1047.1000, -79.319
1047.2000, -78.883
1047.3000, -80.054
1047.4000, -80.961
1047.5000, -81.297
1047.6000, -79.757
1047.7000, -78.022
1047.8000, -80.981
1047.9000, -79.442
1048.0000, -79.602
1048.1000, -80.147
1048.2000, -79.124
1048.3000, -80.949
1048.4000, -78.054
1048.5000, -79.988
1048.6000, -79.155
1048.7000, -80.184
1048.8000, -79.437
1048.9000, -79.512
1049.0000, -77.695
1049.1000, -77.786
1049.2000, -76.755
1049.3000, -79.696
1049.4000, -78.666
1049.5000, -80.894
1049.6000, -79.067
1049.7000, -80.247
1049.8000, -77.857
1049.9000, -78.721
1050.0000, -80.226
1050.1000, -76.206
1050.2000, -80.046
1050.3000, -79.872
1050.4000, -84.736
1050.5000, -78.906
1050.6000, -77.859
1050.7000, -77.467
1050.8000, -78.425
1050.9000, -79.319
1051.0000, -78.521
1051.1000, -77.719
1051.2000, -79.853
1051.3000, -77.883
1051.4000, -78.610
1051.5000, -76.696
1051.6000, -76.790
1051.7000, -77.533
1051.8000, -76.872
1051.9000, -78.147
1052.0000, -74.753
1052.1000, -74.556
1052.2000, -74.193
1052.3000, -72.654
1052.4000, -72.833
1052.5000, -73.421
1052.6000, -71.845
1052.7000, -73.045
1052.8000, -73.780
1052.9000, -71.766
1053.0000, -73.666
1053.1000, -73.031
1053.2000, -72.236
1053.3000, -70.645
1053.4000, -69.355
1053.5000, -66.688
1053.6000, -64.064
1053.7000, -61.254
1053.8000, -58.242
1053.9000, -55.162
1054.0000, -51.823
1054.1000, -49.279
1054.2000, -46.458
1054.3000, -44.276
1054.4000, -41.757
1054.5000, -39.453
1054.6000, -36.590
1054.7000, -33.743
1054.8000, -32.027
1054.9000, -31.405
1055.0000, -31.200
1055.1000, -31.168
1055.2000, -31.327
1055.3000, -31.794
1055.4000, -33.225
1055.5000, -36.147
1055.6000, -39.150
1055.7000, -41.982
1055.8000, -44.986
1055.9000, -48.578
1056.0000, -50.875
1056.1000, -53.555
1056.2000, -56.253
1056.3000, -58.660
1056.4000, -60.947
1056.5000, -62.724
1056.6000, -64.809
1056.7000, -66.808
1056.8000, -68.368
1056.9000, -69.456
1057.0000, -71.280
1057.1000, -72.229
1057.2000, -72.590
1057.3000, -73.472
1057.4000, -74.180
1057.5000, -74.080
1057.6000, -74.621
1057.7000, -74.790
1057.8000, -74.950
1057.9000, -74.341
1058.0000, -74.167
1058.1000, -74.842
1058.2000, -74.053
1058.3000, -73.880
1058.4000, -73.961
1058.5000, -73.973
1058.6000, -73.837
1058.7000, -73.708
1058.8000, -73.513
1058.9000, -73.112
1059.0000, -73.023
1059.1000, -72.833
1059.2000, -73.819
1059.3000, -72.381
1059.4000, -72.291
1059.5000, -72.168
1059.6000, -72.203
1059.7000, -72.244
1059.8000, -71.672
1059.9000, -71.629
1060.0000, -71.468
1060.1000, -71.111
1060.2000, -71.010
1060.3000, -70.557
1060.4000, -70.620
1060.5000, -69.903
1060.6000, -69.486
1060.7000, -69.092
1060.8000, -68.590
1060.9000, -67.994
1061.0000, -67.138
1061.1000, -66.381
1061.2000, -66.213
1061.3000, -64.322
1061.4000, -63.753
1061.5000, -62.923
1061.6000, -62.183
1061.7000, -60.861
1061.8000, -60.385
1061.9000, -59.526
1062.0000, -57.996
1062.1000, -57.191
1062.2000, -56.057
1062.3000, -54.665
1062.4000, -53.809
1062.5000, -52.325
1062.6000, -51.294
1062.7000, -50.651
1062.8000, -50.187
1062.9000, -50.023
1063.0000, -49.624
1063.1000, -49.679
1063.2000, -49.342
1063.3000, -49.113
1063.4000, -48.190
1063.5000, -46.643
1063.6000, -44.547
1063.7000, -42.278
1063.8000, -40.430
1063.9000, -36.979
1064.0000, -30.865
1064.1000, -21.673
1064.2000, -17.191
1064.3000, -13.945
1064.4000, -11.921
1064.5000, -11.267
1064.6000, -11.121
1064.7000, -11.028
1064.8000, -11.263
1064.9000, -11.912
1065.0000, -13.436
1065.1000, -16.813
1065.2000, -21.553
1065.3000, -25.312
1065.4000, -28.969
1065.5000, -32.304
1065.6000, -35.423
1065.7000, -38.088
1065.8000, -40.311
1065.9000, -42.543
1066.0000, -44.538
1066.1000, -46.667
1066.2000, -48.649
1066.3000, -50.561
1066.4000, -52.406
1066.5000, -54.250
1066.6000, -55.572
1066.7000, -57.380
1066.8000, -58.820
1066.9000, -59.660
1067.0000, -60.652
1067.1000, -61.584
1067.2000, -62.422
1067.3000, -63.148
1067.4000, -63.773
1067.5000, -64.352
1067.6000, -64.886
1067.7000, -65.347
1067.8000, -65.838
1067.9000, -66.280
1068.0000, -66.610
1068.1000, -66.805
1068.2000, -67.144
1068.3000, -67.352
1068.4000, -67.666
1068.5000, -67.493
1068.6000, -67.691
1068.7000, -67.885
1068.8000, -67.878
1068.9000, -68.002
1069.0000, -68.046
1069.1000, -68.125
1069.2000, -68.021
1069.3000, -68.115
1069.4000, -68.019
1069.5000, -68.216
1069.6000, -67.917
1069.7000, -67.803
1069.8000, -67.580
1069.9000, -67.594
1070.0000, -67.502
1070.1000, -67.289
1070.2000, -66.863
1070.3000, -66.110
1070.4000, -65.928
1070.5000, -65.292
1070.6000, -64.845
1070.7000, -63.994
1070.8000, -63.598
1070.9000, -62.263
1071.0000, -61.084
1071.1000, -60.317
1071.2000, -59.472
1071.3000, -58.693
1071.4000, -58.020
1071.5000, -56.396
1071.6000, -54.796
1071.7000, -54.391
1071.8000, -53.156
1071.9000, -51.502
1072.0000, -50.260
1072.1000, -48.987
1072.2000, -46.892
1072.3000, -45.548
1072.4000, -44.492
1072.5000, -43.378
1072.6000, -41.390
1072.7000, -40.109
1072.8000, -38.697
1072.9000, -37.004
1073.0000, -36.276
1073.1000, -34.492
1073.2000, -32.904
1073.3000, -31.327
1073.4000, -29.923
1073.5000, -28.268
1073.6000, -26.171
1073.7000, -24.393
1073.8000, -22.592
1073.9000, -20.882
1074.0000, -19.142
1074.1000, -17.216
1074.2000, -15.971
1074.3000, -14.978
1074.4000, -14.294
1074.5000, -13.706
1074.6000, -13.472
1074.7000, -13.386
1074.8000, -13.579
1074.9000, -14.001
1075.0000, -14.497
1075.1000, -15.102
1075.2000, -15.968
1075.3000, -17.083
1075.4000, -18.302
1075.5000, -19.724
1075.6000, -21.325
1075.7000, -23.106
1075.8000, -24.937
1075.9000, -26.721
1076.0000, -28.541
1076.1000, -30.510
1076.2000, -31.952
1076.3000, -33.274
1076.4000, -33.912
1076.5000, -33.912
1076.6000, -33.457
1076.7000, -33.875
1076.8000, -33.803
1076.9000, -33.663
1077.0000, -34.026
1077.1000, -34.400
1077.2000, -35.950
1077.3000, -36.435
1077.4000, -37.647
1077.5000, -39.026
1077.6000, -40.773
1077.7000, -41.726
1077.8000, -43.320
1077.9000, -45.302
1078.0000, -46.210
1078.1000, -47.767
1078.2000, -49.215
1078.3000, -50.385
1078.4000, -52.524
1078.5000, -53.011
1078.6000, -54.041
1078.7000, -54.591
1078.8000, -55.662
1078.9000, -57.776
1079.0000, -57.622
1079.1000, -58.409
1079.2000, -59.375
1079.3000, -60.226
1079.4000, -60.935
1079.5000, -61.185
1079.6000, -61.516
1079.7000, -61.862
1079.8000, -62.002
1079.9000, -62.208
1080.0000, -62.347
1080.1000, -62.419
1080.2000, -62.387
1080.3000, -62.516
1080.4000, -62.556
1080.5000, -62.511
1080.6000, -62.505
1080.7000, -62.479
1080.8000, -62.464
1080.9000, -62.410
1081.0000, -62.469
1081.1000, -62.409
1081.2000, -62.274
1081.3000, -62.217
1081.4000, -62.133
1081.5000, -62.117
1081.6000, -62.040
1081.7000, -61.933
1081.8000, -61.780
1081.9000, -61.640
1082.0000, -61.572
1082.1000, -61.367
1082.2000, -61.119
1082.3000, -61.026
1082.4000, -60.371
1082.5000, -60.354
1082.6000, -59.713
1082.7000, -58.982
1082.8000, -58.427
1082.9000, -57.990
1083.0000, -57.040
1083.1000, -56.669
1083.2000, -56.035
1083.3000, -55.175
1083.4000, -54.416
1083.5000, -53.434
1083.6000, -52.135
1083.7000, -50.741
1083.8000, -49.565
1083.9000, -48.307
1084.0000, -47.316
1084.1000, -46.132
1084.2000, -45.115
1084.3000, -44.092
1084.4000, -43.296
1084.5000, -42.877
1084.6000, -42.257
1084.7000, -41.890
1084.8000, -41.904
1084.9000, -42.202
1085.0000, -42.688
1085.1000, -43.445
1085.2000, -44.239
1085.3000, -45.309
1085.4000, -46.908
1085.5000, -48.303
1085.6000, -49.532
1085.7000, -50.421
1085.8000, -51.624
1085.9000, -52.858
1086.0000, -54.230
1086.1000, -55.606
1086.2000, -56.258
1086.3000, -57.116
1086.4000, -57.661
1086.5000, -58.298
1086.6000, -58.541
1086.7000, -58.902
1086.8000, -59.192
1086.9000, -59.340
1087.0000, -59.490
1087.1000, -59.524
1087.2000, -59.599
1087.3000, -59.560
1087.4000, -59.580
1087.5000, -59.521
1087.6000, -59.384
1087.7000, -59.450
1087.8000, -59.392
1087.9000, -59.280
1088.0000, -59.277
1088.1000, -59.232
1088.2000, -59.140
1088.3000, -59.044
1088.4000, -58.970
1088.5000, -58.912
1088.6000, -58.895
1088.7000, -58.791
1088.8000, -58.698
1088.9000, -58.607
1089.0000, -58.610
1089.1000, -58.488
1089.2000, -58.457
1089.3000, -58.287
1089.4000, -58.229
1089.5000, -58.122
1089.6000, -58.056
1089.7000, -58.017
1089.8000, -57.912
1089.9000, -57.820
1090.0000, -57.732
1090.1000, -57.669
1090.2000, -57.674
1090.3000, -57.551
1090.4000, -57.547
1090.5000, -57.408
1090.6000, -57.345
1090.7000, -57.407
1090.8000, -57.297
1090.9000, -57.355
1091.0000, -57.251
1091.1000, -57.145
1091.2000, -57.144
1091.3000, -57.087
1091.4000, -56.959
1091.5000, -56.912
1091.6000, -56.787
1091.7000, -56.768
1091.8000, -56.666
1091.9000, -56.582
1092.0000, -56.541
1092.1000, -56.466
1092.2000, -56.461
1092.3000, -56.302
1092.4000, -56.214
1092.5000, -55.992
1092.6000, -56.071
1092.7000, -55.931
1092.8000, -55.808
1092.9000, -55.673
1093.0000, -55.591
1093.1000, -55.535
1093.2000, -55.402
1093.3000, -55.327
1093.4000, -55.179
1093.5000, -55.129
1093.6000, -54.904
1093.7000, -54.840
1093.8000, -54.654
1093.9000, -54.621
1094.0000, -54.487
1094.1000, -54.388
1094.2000, -54.242
1094.3000, -54.117
1094.4000, -54.034
1094.5000, -53.904
1094.6000, -53.809
1094.7000, -53.643
1094.8000, -53.567
1094.9000, -53.421
1095.0000, -53.333
1095.1000, -53.189
1095.2000, -53.152
1095.3000, -53.099
1095.4000, -52.868
1095.5000, -52.819
1095.6000, -52.754
1095.7000, -52.533
1095.8000, -52.390
1095.9000, -52.326
1096.0000, -52.234
1096.1000, -52.061
1096.2000, -51.992
1096.3000, -51.807
1096.4000, -51.705
1096.5000, -51.571
1096.6000, -51.469
1096.7000, -51.300
1096.8000, -51.140
1096.9000, -51.014
1097.0000, -50.862
1097.1000, -50.725
1097.2000, -50.618
1097.3000, -50.448
1097.4000, -50.313
1097.5000, -50.175
1097.6000, -50.044
1097.7000, -49.874
1097.8000, -49.725
1097.9000, -49.609
1098.0000, -49.456
1098.1000, -49.271
1098.2000, -49.104
1098.3000, -48.975
1098.4000, -48.868
1098.5000, -48.663
1098.6000, -48.640
1098.7000, -48.381
1098.8000, -48.339
1098.9000, -48.128
1099.0000, -47.972
1099.1000, -47.921
1099.2000, -47.681
1099.3000, -47.594
1099.4000, -47.497
1099.5000, -47.366
1099.6000, -47.170
1099.7000, -47.114
1099.8000, -46.950
1099.9000, -46.814
1100.0000, -46.612
1100.1000, -46.588
1100.2000, -46.384
1100.3000, -46.252
1100.4000, -46.154
1100.5000, -46.035
1100.6000, -45.888
1100.7000, -45.729
1100.8000, -45.606
1100.9000, -45.518
1101.0000, -45.329
1101.1000, -45.167
1101.2000, -45.112
1101.3000, -44.872
1101.4000, -44.776
1101.5000, -44.652
1101.6000, -44.482
1101.7000, -44.368
1101.8000, -44.218
1101.9000, -44.029
1102.0000, -43.906
1102.1000, -43.748
1102.2000, -43.612
1102.3000, -43.468
1102.4000, -43.358
1102.5000, -43.143
1102.6000, -43.056
1102.7000, -42.956
1102.8000, -42.736
1102.9000, -42.559
1103.0000, -42.399
1103.1000, -42.189
1103.2000, -42.013
1103.3000, -41.946
1103.4000, -41.810
1103.5000, -41.615
1103.6000, -41.425
1103.7000, -41.325
1103.8000, -41.199
1103.9000, -40.996
1104.0000, -40.863
1104.1000, -40.606
1104.2000, -40.458
1104.3000, -40.297
1104.4000, -40.149
1104.5000, -39.944
1104.6000, -39.743
1104.7000, -39.571
1104.8000, -39.367
1104.9000, -39.233
1105.0000, -39.008
1105.1000, -38.844
1105.2000, -38.673
1105.3000, -38.511
1105.4000, -38.294
1105.5000, -38.067
1105.6000, -37.856
1105.7000, -37.664
1105.8000, -37.490
1105.9000, -37.330
1106.0000, -37.150
1106.1000, -36.948
1106.2000, -36.743
1106.3000, -36.541
1106.4000, -36.253
1106.5000, -36.114
1106.6000, -35.914
1106.7000, -35.672
1106.8000, -35.518
1106.9000, -35.316
1107.0000, -35.043
1107.1000, -34.931
1107.2000, -34.654
1107.3000, -34.490
1107.4000, -34.283
1107.5000, -34.088
1107.6000, -33.850
1107.7000, -33.651
1107.8000, -33.507
1107.9000, -33.240
1108.0000, -33.113
1108.1000, -32.842
1108.2000, -32.691
1108.3000, -32.502
1108.4000, -32.336
1108.5000, -32.196
1108.6000, -31.992
1108.7000, -31.789
1108.8000, -31.625
1108.9000, -31.361
1109.0000, -31.228
1109.1000, -31.018
1109.2000, -30.900
1109.3000, -30.668
1109.4000, -30.467
1109.5000, -30.276
1109.6000, -30.149
1109.7000, -29.937
1109.8000, -29.795
1109.9000, -29.646
1110.0000, -29.494
1110.1000, -29.275
1110.2000, -29.141
1110.3000, -29.010
1110.4000, -28.795
1110.5000, -28.623
1110.6000, -28.466
1110.7000, -28.279
1110.8000, -28.103
1110.9000, -27.998
1111.0000, -27.840
1111.1000, -27.656
1111.2000, -27.480
1111.3000, -27.346
1111.4000, -27.153
1111.5000, -26.997
1111.6000, -26.874
1111.7000, -26.702
1111.8000, -26.542
1111.9000, -26.407
1112.0000, -26.228
1112.1000, -26.063
1112.2000, -25.946
1112.3000, -25.734
1112.4000, -25.636
1112.5000, -25.417
1112.6000, -25.269
1112.7000, -25.144
1112.8000, -25.005
1112.9000, -24.837
1113.0000, -24.653
1113.1000, -24.505
1113.2000, -24.372
1113.3000, -24.250
1113.4000, -24.110
1113.5000, -23.970
1113.6000, -23.862
1113.7000, -23.691
1113.8000, -23.571
1113.9000, -23.385
1114.0000, -23.210
1114.1000, -23.093
1114.2000, -22.964
1114.3000, -22.826
1114.4000, -22.720
1114.5000, -22.519
1114.6000, -22.431
1114.7000, -22.275
1114.8000, -22.156
1114.9000, -22.002
1115.0000, -21.857
1115.1000, -21.673
1115.2000, -21.628
1115.3000, -21.458
1115.4000, -21.331
1115.5000, -21.172
1115.6000, -21.135
1115.7000, -20.936
1115.8000, -20.835
1115.9000, -20.689
1116.0000, -20.594
1116.1000, -20.462
1116.2000, -20.381
1116.3000, -20.290
1116.4000, -20.204
1116.5000, -20.132
1116.6000, -20.108
1116.7000, -20.035
1116.8000, -20.063
1116.9000, -19.953
1117.0000, -19.975
1117.1000, -19.939
1117.2000, -20.035
1117.3000, -19.883
1117.4000, -19.996
1117.5000, -19.955
1117.6000, -20.012
1117.7000, -20.046
1117.8000, -20.147
1117.9000, -20.190
1118.0000, -20.223
1118.1000, -20.471
1118.2000, -20.456
1118.3000, -20.624
1118.4000, -20.705
1118.5000, -20.923
1118.6000, -20.959
1118.7000, -21.108
1118.8000, -21.337
1118.9000, -21.481
1119.0000, -21.568
1119.1000, -21.711
1119.2000, -21.961
1119.3000, -22.111
1119.4000, -22.331
1119.5000, -22.427
1119.6000, -22.614
1119.7000, -22.757
1119.8000, -22.990
1119.9000, -23.096
1120.0000, -23.277
1120.1000, -23.457
1120.2000, -23.633
1120.3000, -23.738
1120.4000, -23.786
1120.5000, -24.059
1120.6000, -24.057
1120.7000, -24.327
1120.8000, -24.303
1120.9000, -24.473
1121.0000, -24.450
1121.1000, -24.539
1121.2000, -24.536
1121.3000, -24.474
1121.4000, -24.628
1121.5000, -24.415
1121.6000, -24.532
1121.7000, -24.346
1121.8000, -24.315
1121.9000, -24.080
1122.0000, -24.129
1122.1000, -23.842
1122.2000, -23.787
1122.3000, -23.621
1122.4000, -23.447
1122.5000, -23.342
1122.6000, -23.228
1122.7000, -23.218
1122.8000, -23.002
1122.9000, -23.085
1123.0000, -22.993
1123.1000, -23.152
1123.2000, -23.077
1123.3000, -23.316
1123.4000, -23.425
1123.5000, -23.725
1123.6000, -24.006
1123.7000, -24.287
1123.8000, -24.765
1123.9000, -25.068
1124.0000, -25.726
1124.1000, -25.985
1124.2000, -26.638
1124.3000, -27.154
1124.4000, -27.971
1124.5000, -28.533
1124.6000, -29.307
1124.7000, -30.077
1124.8000, -30.712
1124.9000, -31.784
1125.0000, -32.305
1125.1000, -33.311
1125.2000, -33.978
1125.3000, -35.057
1125.4000, -35.705
1125.5000, -36.947
1125.6000, -37.488
1125.7000, -38.389
1125.8000, -39.236
1125.9000, -39.878
1126.0000, -40.748
1126.1000, -41.262
1126.2000, -42.176
1126.3000, -42.404
1126.4000, -43.406
1126.5000, -43.678
1126.6000, -44.367
1126.7000, -44.539
1126.8000, -45.230
1126.9000, -45.507
1127.0000, -45.843
1127.1000, -46.352
1127.2000, -46.422
1127.3000, -47.006
1127.4000, -47.082
1127.5000, -47.578
1127.6000, -47.493
1127.7000, -48.046
1127.8000, -48.014
1127.9000, -48.441
1128.0000, -48.593
1128.1000, -48.862
1128.2000, -49.003
1128.3000, -49.052
1128.4000, -49.533
1128.5000, -49.432
1128.6000, -49.905
1128.7000, -49.840
1128.8000, -50.331
1128.9000, -50.231
1129.0000, -50.663
1129.1000, -50.676
1129.2000, -50.916
1129.3000, -51.145
1129.4000, -51.212
1129.5000, -51.711
1129.6000, -51.615
1129.7000, -52.116
1129.8000, -52.079
1129.9000, -52.700
1130.0000, -52.625
1130.1000, -53.007
1130.2000, -52.992
1130.3000, -53.610
1130.4000, -53.595
1130.5000, -53.994
1130.6000, -54.412
1130.7000, -54.368
1130.8000, -55.007
1130.9000, -54.928
1131.0000, -55.499
1131.1000, -55.432
1131.2000, -56.097
1131.3000, -56.178
1131.4000, -56.677
1131.5000, -56.696
1131.6000, -57.121
1131.7000, -57.358
1131.8000, -57.501
1131.9000, -58.051
1132.0000, -57.935
1132.1000, -58.401
1132.2000, -58.480
1132.3000, -59.060
1132.4000, -58.968
1132.5000, -59.505
1132.6000, -59.659
1132.7000, -59.909
1132.8000, -60.250
1132.9000, -60.403
1133.0000, -60.728
1133.1000, -60.758
1133.2000, -61.360
1133.3000, -61.347
1133.4000, -61.934
1133.5000, -61.865
1133.6000, -62.349
1133.7000, -62.357
1133.8000, -62.764
1133.9000, -62.876
1134.0000, -63.111
1134.1000, -63.440
1134.2000, -63.587
1134.3000, -63.838
1134.4000, -63.980
1134.5000, -64.249
1134.6000, -64.198
1134.7000, -64.850
1134.8000, -64.933
1134.9000, -65.044
1135.0000, -65.049
1135.1000, -65.358
1135.2000, -65.562
1135.3000, -65.558
1135.4000, -65.893
1135.5000, -65.970
1135.6000, -66.108
1135.7000, -66.129
1135.8000, -66.685
1135.9000, -66.363
1136.0000, -66.410
1136.1000, -66.507
1136.2000, -66.556
1136.3000, -66.707
1136.4000, -66.735
1136.5000, -66.729
1136.6000, -66.661
1136.7000, -66.751
1136.8000, -66.791
1136.9000, -66.802
1137.0000, -66.616
1137.1000, -66.715
1137.2000, -66.745
1137.3000, -66.834
1137.4000, -66.695
1137.5000, -66.790
1137.6000, -66.901
1137.7000, -66.957
1137.8000, -67.002
1137.9000, -67.316
1138.0000, -67.294
1138.1000, -67.443
1138.2000, -67.907
1138.3000, -67.906
1138.4000, -68.212
1138.5000, -68.301
1138.6000, -68.708
1138.7000, -68.855
1138.8000, -69.163
1138.9000, -69.564
1139.0000, -69.670
1139.1000, -69.968
1139.2000, -69.975
1139.3000, -70.560
1139.4000, -70.905
1139.5000, -71.074
1139.6000, -71.072
1139.7000, -71.581
1139.8000, -71.700
1139.9000, -71.940
1140.0000, -72.929
1140.1000, -72.627
1140.2000, -72.589
1140.3000, -72.602
1140.4000, -73.250
1140.5000, -73.029
1140.6000, -73.710
1140.7000, -74.627
1140.8000, -74.709
1140.9000, -74.389
1141.0000, -74.660
1141.1000, -74.211
1141.2000, -74.795
1141.3000, -74.558
1141.4000, -74.861
1141.5000, -75.436
1141.6000, -75.449
1141.7000, -75.739
1141.8000, -75.868
1141.9000, -75.796
1142.0000, -75.763
1142.1000, -75.430
1142.2000, -75.813
1142.3000, -76.476
1142.4000, -76.385
1142.5000, -75.937
1142.6000, -76.091
1142.7000, -76.032
1142.8000, -76.585
1142.9000, -76.089
1143.0000, -77.869
1143.1000, -78.983
1143.2000, -74.238
1143.3000, -75.988
1143.4000, -76.272
1143.5000, -77.556
1143.6000, -77.577
1143.7000, -76.635
1143.8000, -76.632
1143.9000, -76.429
1144.0000, -76.210
1144.1000, -77.933
1144.2000, -76.974
1144.3000, -76.045
1144.4000, -77.908
1144.5000, -76.317
1144.6000, -76.840
1144.7000, -78.467
1144.8000, -77.056
1144.9000, -75.873
1145.0000, -79.177
1145.1000, -76.286
1145.2000, -78.356
1145.3000, -77.060
1145.4000, -76.629
1145.5000, -76.358
1145.6000, -77.924
1145.7000, -77.945
1145.8000, -77.174
1145.9000, -77.247
1146.0000, -76.911
1146.1000, -78.289
1146.2000, -77.317
1146.3000, -77.544
1146.4000, -77.123
1146.5000, -78.308
1146.6000, -76.725
1146.7000, -76.868
1146.8000, -76.802
1146.9000, -77.556
1147.0000, -77.720
1147.1000, -77.345
1147.2000, -77.175
1147.3000, -77.190
1147.4000, -76.398
1147.5000, -76.414
1147.6000, -77.766
1147.7000, -76.831
1147.8000, -77.046
1147.9000, -77.847
1148.0000, -76.687
1148.1000, -76.986
1148.2000, -76.699
1148.3000, -76.589
1148.4000, -77.375
1148.5000, -77.215
1148.6000, -76.876
1148.7000, -77.409
1148.8000, -77.095
1148.9000, -77.415
1149.0000, -76.827
1149.1000, -77.465
1149.2000, -77.542
1149.3000, -75.571
1149.4000, -77.014
1149.5000, -76.770
1149.6000, -77.467
1149.7000, -77.724
1149.8000, -80.962
1149.9000, -74.920
1150.0000, -76.498
1150.1000, -76.439
1150.2000, -75.995
1150.3000, -79.851
1150.4000, -76.194
1150.5000, -77.726
1150.6000, -78.423
1150.7000, -74.999
1150.8000, -78.641
1150.9000, -75.945
1151.0000, -76.179
1151.1000, -79.701
1151.2000, -75.014
1151.3000, -79.622
1151.4000, -75.947
1151.5000, -74.609
1151.6000, -76.794
1151.7000, -76.707
1151.8000, -77.922
1151.9000, -76.473
1152.0000, -76.488
1152.1000, -79.535
1152.2000, -76.498
1152.3000, -76.914
1152.4000, -76.175
1152.5000, -76.789
1152.6000, -76.234
1152.7000, -77.756
1152.8000, -76.639
1152.9000, -75.831
1153.0000, -76.505
1153.1000, -77.366
1153.2000, -76.745
1153.3000, -76.428
1153.4000, -75.326
1153.5000, -77.210
1153.6000, -78.259
1153.7000, -74.944
1153.8000, -76.503
1153.9000, -77.131
1154.0000, -76.401
1154.1000, -76.687
1154.2000, -76.850
1154.3000, -76.529
1154.4000, -75.914
1154.5000, -77.702
1154.6000, -75.690
1154.7000, -76.529
1154.8000, -76.413
1154.9000, -75.690
1155.0000, -77.314
1155.1000, -77.454
1155.2000, -75.067
1155.3000, -76.912
1155.4000, -76.448
1155.5000, -75.811
1155.6000, -75.673
1155.7000, -76.440
1155.8000, -75.716
1155.9000, -75.949
1156.0000, -77.860
1156.1000, -76.186
1156.2000, -74.979
1156.3000, -75.952
1156.4000, -76.019
1156.5000, -74.216
1156.6000, -75.945
1156.7000, -74.988
1156.8000, -75.366
1156.9000, -74.883
1157.0000, -75.038
1157.1000, -75.534
1157.2000, -75.016
1157.3000, -75.088
1157.4000, -75.503
1157.5000, -75.680
1157.6000, -75.199
1157.7000, -74.139
1157.8000, -74.620
1157.9000, -74.831
1158.0000, -75.415
1158.1000, -76.099
1158.2000, -74.013
1158.3000, -74.599
1158.4000, -75.056
1158.5000, -74.505
1158.6000, -74.849
1158.7000, -75.145
1158.8000, -74.449
1158.9000, -75.069
1159.0000, -74.284
1159.1000, -74.747
1159.2000, -74.918
1159.3000, -73.910
1159.4000, -74.427
1159.5000, -74.990
1159.6000, -74.119
1159.7000, -73.994
1159.8000, -75.145
1159.9000, -74.115
1160.0000, -73.183
1160.1000, -73.751
1160.2000, -73.039
1160.3000, -73.216
1160.4000, -72.588
1160.5000, -72.727
1160.6000, -72.781
1160.7000, -72.518
1160.8000, -72.465
1160.9000, -72.392
1161.0000, -71.810
1161.1000, -71.991
1161.2000, -71.611
1161.3000, -71.894
1161.4000, -71.293
1161.5000, -71.365
1161.6000, -71.138
1161.7000, -71.153
1161.8000, -71.012
1161.9000, -71.036
1162.0000, -70.833
1162.1000, -70.552
1162.2000, -70.780
1162.3000, -70.658
1162.4000, -70.472
1162.5000, -70.622
1162.6000, -70.600
1162.7000, -70.513
1162.8000, -70.527
1162.9000, -70.330
1163.0000, -70.321
1163.1000, -70.293
1163.2000, -70.206
1163.3000, -70.238
1163.4000, -70.473
1163.5000, -69.897
1163.6000, -70.189
1163.7000, -70.195
1163.8000, -70.071
1163.9000, -69.900
1164.0000, -69.699
1164.1000, -69.903
1164.2000, -69.688
1164.3000, -69.929
1164.4000, -69.450
1164.5000, -69.521
1164.6000, -69.315
1164.7000, -69.340
1164.8000, -69.378
1164.9000, -68.961
1165.0000, -69.239
1165.1000, -69.048
1165.2000, -68.917
1165.3000, -68.941
1165.4000, -68.652
1165.5000, -68.794
1165.6000, -69.126
1165.7000, -68.825
1165.8000, -68.710
1165.9000, -68.629
1166.0000, -68.712
1166.1000, -68.670
1166.2000, -68.621
1166.3000, -68.604
1166.4000, -68.659
1166.5000, -68.508
1166.6000, -68.777
1166.7000, -68.759
1166.8000, -68.677
1166.9000, -68.698
1167.0000, -68.761
1167.1000, -68.680
1167.2000, -68.896
1167.3000, -68.785
1167.4000, -68.646
1167.5000, -68.855
1167.6000, -69.105
1167.7000, -69.032
1167.8000, -68.671
1167.9000, -68.770
1168.0000, -68.797
1168.1000, -68.839
1168.2000, -68.962
1168.3000, -68.740
1168.4000, -68.708
1168.5000, -68.832
1168.6000, -68.748
1168.7000, -68.768
1168.8000, -68.624
1168.9000, -68.753
1169.0000, -68.644
1169.1000, -68.622
1169.2000, -68.675
1169.3000, -68.563
1169.4000, -68.688
1169.5000, -68.696
1169.6000, -68.659
1169.7000, -68.464
1169.8000, -68.736
1169.9000, -68.624
1170.0000, -68.660
1170.1000, -68.532
1170.2000, -68.630
1170.3000, -68.644
1170.4000, -68.851
1170.5000, -68.832
1170.6000, -68.826
1170.7000, -69.088
1170.8000, -68.764
1170.9000, -69.071
1171.0000, -69.217
1171.1000, -69.194
1171.2000, -69.196
1171.3000, -69.476
1171.4000, -69.417
1171.5000, -69.577
1171.6000, -69.748
1171.7000, -69.611
1171.8000, -69.691
1171.9000, -69.851
1172.0000, -69.985
1172.1000, -70.164
1172.2000, -69.983
1172.3000, -70.127
1172.4000, -70.341
1172.5000, -70.145
1172.6000, -70.290
1172.7000, -70.113
1172.8000, -70.133
1172.9000, -70.210
1173.0000, -70.474
1173.1000, -70.231
1173.2000, -70.037
1173.3000, -70.264
1173.4000, -70.429
1173.5000, -70.410
1173.6000, -70.322
1173.7000, -70.171
1173.8000, -69.949
1173.9000, -70.303
1174.0000, -69.732
1174.1000, -70.385
1174.2000, -69.860
1174.3000, -70.038
1174.4000, -69.651
1174.5000, -69.783
1174.6000, -70.116
1174.7000, -69.852
1174.8000, -69.851
1174.9000, -69.946
1175.0000, -70.113
1175.1000, -70.019
1175.2000, -70.112
1175.3000, -70.182
1175.4000, -70.496
1175.5000, -70.532
1175.6000, -70.612
1175.7000, -70.578
1175.8000, -70.646
1175.9000, -70.616
1176.0000, -71.459
1176.1000, -70.425
1176.2000, -71.548
1176.3000, -72.123
1176.4000, -70.811
1176.5000, -70.620
1176.6000, -71.901
1176.7000, -70.941
1176.8000, -71.836
1176.9000, -71.760
1177.0000, -70.832
1177.1000, -71.975
1177.2000, -71.530
1177.3000, -71.486
1177.4000, -71.730
1177.5000, -71.359
1177.6000, -71.510
1177.7000, -71.861
1177.8000, -70.924
1177.9000, -71.563
1178.0000, -71.415
1178.1000, -71.130
1178.2000, -71.663
1178.3000, -71.137
1178.4000, -71.710
1178.5000, -71.373
1178.6000, -71.191
1178.7000, -71.451
1178.8000, -71.633
1178.9000, -71.555
1179.0000, -72.018
1179.1000, -71.428
1179.2000, -71.765
1179.3000, -72.229
1179.4000, -72.721
1179.5000, -71.942
1179.6000, -72.502
1179.7000, -72.782
1179.8000, -72.641
1179.9000, -73.081
1180.0000, -72.827
1180.1000, -73.084
1180.2000, -72.792
1180.3000, -74.331
1180.4000, -73.086
1180.5000, -73.201
1180.6000, -73.781
1180.7000, -73.704
1180.8000, -75.000
1180.9000, -75.864
1181.0000, -72.689
1181.1000, -75.037
1181.2000, -74.052
1181.3000, -74.641
1181.4000, -74.399
1181.5000, -74.232
1181.6000, -75.314
1181.7000, -75.281
1181.8000, -75.860
1181.9000, -74.003
1182.0000, -74.543
1182.1000, -75.956
1182.2000, -75.573
1182.3000, -74.852
1182.4000, -75.085
1182.5000, -74.715
1182.6000, -75.011
1182.7000, -75.407
1182.8000, -75.137
1182.9000, -74.749
1183.0000, -75.660
1183.1000, -76.053
1183.2000, -76.015
1183.3000, -76.749
1183.4000, -76.103
1183.5000, -77.874
1183.6000, -76.768
1183.7000, -76.701
1183.8000, -77.124
1183.9000, -76.798
1184.0000, -77.316
1184.1000, -77.890
1184.2000, -77.561
1184.3000, -78.180
1184.4000, -78.589
1184.5000, -79.000
1184.6000, -78.016
1184.7000, -78.391
1184.8000, -78.504
1184.9000, -80.469
1185.0000, -78.695
1185.1000, -78.223
1185.2000, -78.270
1185.3000, -79.542
1185.4000, -79.471
1185.5000, -79.291
1185.6000, -79.723
1185.7000, -79.283
1185.8000, -80.228
1185.9000, -79.593
1186.0000, -78.833
1186.1000, -78.745
1186.2000, -79.101
1186.3000, -80.257
1186.4000, -80.250
1186.5000, -78.810
1186.6000, -79.339
1186.7000, -82.508
1186.8000, -81.544
1186.9000, -77.953
1187.0000, -80.029
1187.1000, -80.218
1187.2000, -80.424
1187.3000, -79.108
1187.4000, -78.454
1187.5000, -79.421
1187.6000, -81.794
1187.7000, -79.821
1187.8000,-105.417
1187.9000, -78.957
1188.0000, -81.083
1188.1000, -80.270
1188.2000, -81.138
1188.3000, -80.719
1188.4000, -80.490
1188.5000, -82.937
1188.6000, -81.586
1188.7000, -80.591
1188.8000, -79.070
1188.9000, -82.447
1189.0000, -80.043
1189.1000, -81.122
1189.2000, -81.797
1189.3000, -80.937
1189.4000, -80.434
1189.5000, -80.225
1189.6000, -80.637
1189.7000, -81.014
1189.8000, -81.591
1189.9000, -79.109
1190.0000, -79.292
1190.1000, -82.781
1190.2000, -83.308
1190.3000, -80.034
1190.4000, -83.025
1190.5000, -79.066
1190.6000, -79.681
1190.7000, -86.221
1190.8000, -81.747
1190.9000, -79.622
1191.0000, -81.861
1191.1000, -80.161
1191.2000, -79.827
1191.3000, -83.975
1191.4000, -80.867
1191.5000, -79.601
1191.6000, -83.863
1191.7000, -82.821
1191.8000, -79.102
1191.9000, -80.606
1192.0000, -80.779
1192.1000, -80.652
1192.2000, -78.679
1192.3000, -81.622
1192.4000, -87.050
1192.5000, -80.032
1192.6000, -79.588
1192.7000, -81.542
1192.8000, -79.565
1192.9000, -81.214
1193.0000, -79.209
1193.1000, -82.077
1193.2000, -85.587
1193.3000, -79.035
1193.4000, -83.218
1193.5000, -82.677
1193.6000, -83.905
1193.7000, -79.655
1193.8000, -79.337
1193.9000, -79.284
1194.0000,-210.000
1194.1000, -79.495
1194.2000, -80.594
1194.3000, -85.770
1194.4000, -79.143
1194.5000, -82.342
1194.6000, -82.867
1194.7000, -81.558
1194.8000, -80.821
1194.9000, -81.459
1195.0000, -81.699
1195.1000, -80.434
1195.2000, -82.364
1195.3000, -81.578
1195.4000, -79.845
1195.5000, -80.071
1195.6000, -82.279
1195.7000, -79.398
1195.8000, -82.213
1195.9000, -81.091
1196.0000, -80.213
1196.1000, -88.298
1196.2000, -78.846
1196.3000, -80.496
1196.4000, -81.278
1196.5000, -81.027
1196.6000, -82.322
1196.7000, -80.937
1196.8000, -81.109
1196.9000, -80.992
1197.0000, -81.160
1197.1000, -81.126
1197.2000, -83.948
1197.3000, -81.014
1197.4000, -80.946
1197.5000, -81.264
1197.6000, -82.852
1197.7000, -81.256
1197.8000, -80.688
1197.9000, -80.872
1198.0000, -79.531
1198.1000, -83.305
1198.2000, -81.299
1198.3000, -81.056
1198.4000, -81.674
1198.5000, -85.550
1198.6000, -82.534
1198.7000, -81.401
1198.8000, -79.199
1198.9000, -89.470
1199.0000, -80.754
1199.1000, -80.378
1199.2000, -80.878
1199.3000, -84.609
1199.4000, -84.414
1199.5000, -76.827
1199.6000, -80.622
1199.7000, -80.505
1199.8000, -80.945
1199.9000, -94.437
1200.0000, -82.948
1200.1000, -83.010
1200.2000, -80.685
1200.3000, -79.503
1200.4000, -80.138
1200.5000, -80.572
1200.6000, -82.954
1200.7000, -81.560
1200.8000, -79.356
1200.9000, -80.764
1201.0000, -84.993
1201.1000, -82.677
1201.2000, -77.819
1201.3000, -81.723
1201.4000, -80.954
1201.5000, -79.490
1201.6000, -87.628
1201.7000, -80.119
1201.8000, -81.216
1201.9000, -83.462
1202.0000, -82.500
1202.1000, -80.042
1202.2000, -81.069
1202.3000, -80.358
1202.4000, -82.788
1202.5000, -79.520
1202.6000, -81.733
1202.7000, -81.491
1202.8000, -80.312
1202.9000, -79.637
1203.0000, -81.555
1203.1000, -81.663
1203.2000, -80.681
1203.3000, -81.216
1203.4000, -82.359
1203.5000, -79.100
1203.6000, -81.047
1203.7000, -81.349
1203.8000,-210.000
1203.9000, -78.214
1204.0000, -84.550
1204.1000, -82.481
1204.2000, -81.133
1204.3000, -80.822
1204.4000, -80.366
1204.5000, -80.382
1204.6000, -84.278
1204.7000, -81.868
1204.8000, -82.151
1204.9000, -87.771
1205.0000, -80.743
1205.1000, -80.804
1205.2000, -82.258
1205.3000, -83.492
1205.4000, -79.106
1205.5000, -83.261
1205.6000, -79.971
1205.7000, -86.832
1205.8000, -83.587
1205.9000, -79.482
1206.0000, -83.875
1206.1000, -82.220
1206.2000, -82.440
1206.3000, -85.043
1206.4000, -82.142
1206.5000, -85.347
1206.6000, -87.759
1206.7000, -83.523
1206.8000, -82.464
1206.9000, -83.126
1207.0000, -80.393
1207.1000, -83.271
1207.2000, -81.056
1207.3000, -91.125
1207.4000, -80.292
1207.5000, -82.008
1207.6000, -82.323
1207.7000, -81.926
1207.8000, -82.976
1207.9000, -81.085
1208.0000, -83.106
1208.1000, -83.852
1208.2000, -83.327
1208.3000, -82.326
1208.4000, -81.205
1208.5000, -87.032
1208.6000, -84.476
1208.7000, -82.996
1208.8000, -86.270
1208.9000, -84.155
1209.0000, -82.146
1209.1000, -82.486
1209.2000, -82.460
1209.3000, -83.526
1209.4000, -83.485
1209.5000, -84.006
1209.6000, -85.633
1209.7000, -87.079
1209.8000, -84.643
1209.9000, -82.703
1210.0000, -82.834
1210.1000, -82.130
1210.2000, -79.900
1210.3000, -94.728
1210.4000, -83.334
1210.5000, -82.880
1210.6000, -81.891
1210.7000, -81.507
1210.8000, -83.668
1210.9000, -82.315
1211.0000,-210.000
1211.1000, -81.149
1211.2000,-210.000
1211.3000, -80.779
1211.4000, -83.551
1211.5000, -82.619
1211.6000, -82.282
1211.7000, -80.756
1211.8000, -94.475
1211.9000, -85.038
1212.0000, -81.514
1212.1000,-210.000
1212.2000, -84.185
1212.3000, -76.853
1212.4000,-210.000
1212.5000, -86.886
1212.6000, -85.001
1212.7000, -83.794
1212.8000, -79.651
1212.9000, -83.972
1213.0000,-210.000
1213.1000, -82.999
1213.2000, -84.167
1213.3000, -84.777
1213.4000, -83.497
1213.5000, -80.911
1213.6000, -81.016
1213.7000, -81.262
1213.8000,-210.000
1213.9000, -82.002
1214.0000, -81.305
1214.1000, -84.754
1214.2000,-210.000
1214.3000, -81.396
1214.4000, -82.439
1214.5000, -82.990
1214.6000, -82.301
1214.7000, -82.350
1214.8000, -84.560
1214.9000, -81.752
1215.0000, -83.694
1215.1000, -83.568
1215.2000, -82.096
1215.3000, -88.481
1215.4000, -82.400
1215.5000, -80.623
1215.6000, -83.372
1215.7000, -82.121
1215.8000, -93.868
1215.9000, -79.679
1216.0000, -81.549
1216.1000, -90.473
1216.2000,-210.000
1216.3000, -81.873
1216.4000, -80.313
1216.5000,-210.000
1216.6000,-210.000
1216.7000, -80.176
1216.8000, -83.821
1216.9000, -84.170
1217.0000, -87.627
1217.1000, -83.943
1217.2000, -82.537
1217.3000, -82.017
1217.4000, -84.377
1217.5000, -82.352
1217.6000, -82.298
1217.7000, -82.182
1217.8000, -84.800
1217.9000, -83.120
1218.0000, -79.438
1218.1000, -86.633
1218.2000, -90.377
1218.3000, -84.516
1218.4000, -83.847
1218.5000, -84.477
1218.6000, -82.895
1218.7000, -87.229
1218.8000, -83.868
1218.9000, -84.983
1219.0000, -83.225
1219.1000, -82.110
1219.2000, -84.023
1219.3000, -81.880
1219.4000, -85.542
1219.5000, -82.775
1219.6000, -83.801
1219.7000, -83.969
1219.8000, -81.783
1219.9000, -84.115
1220.0000, -81.072
1220.1000, -86.877
1220.2000, -85.477
1220.3000, -81.842
1220.4000, -84.239
1220.5000, -83.324
1220.6000, -85.433
1220.7000, -84.012
1220.8000, -86.017
1220.9000, -84.307
1221.0000, -81.428
1221.1000, -91.689
1221.2000, -81.303
1221.3000, -81.936
1221.4000, -87.858
1221.5000, -86.676
1221.6000, -82.080
1221.7000, -85.308
1221.8000, -85.522
1221.9000, -83.054
1222.0000, -84.370
1222.1000, -81.526
1222.2000, -82.523
1222.3000, -82.190
1222.4000, -84.260
1222.5000, -85.325
1222.6000, -84.686
1222.7000, -82.138
1222.8000, -82.560
1222.9000, -85.275
1223.0000, -86.536
1223.1000, -83.132
1223.2000, -81.388
1223.3000, -84.346
1223.4000, -83.354
1223.5000, -82.203
1223.6000, -84.211
1223.7000, -82.200
1223.8000, -83.762
1223.9000, -83.684
1224.0000, -85.926
1224.1000, -82.282
1224.2000, -83.259
1224.3000, -82.848
1224.4000, -84.279
1224.5000, -84.117
1224.6000, -79.605
1224.7000, -85.213
1224.8000,-210.000
1224.9000, -79.907
1225.0000, -83.620
1225.1000, -91.700
1225.2000, -82.113
1225.3000, -81.207
1225.4000, -81.298
1225.5000, -83.547
1225.6000, -81.496
1225.7000, -80.797
1225.8000, -87.326
1225.9000, -83.564
1226.0000, -82.345
1226.1000, -85.922
1226.2000, -80.909
1226.3000, -82.740
1226.4000, -84.719
1226.5000, -82.142
1226.6000, -83.217
1226.7000, -80.833
1226.8000, -89.328
1226.9000, -81.620
1227.0000, -81.491
1227.1000, -82.711
1227.2000,-210.000
1227.3000, -77.827
1227.4000, -78.134
1227.5000, -83.789
1227.6000, -85.242
1227.7000, -81.406
1227.8000, -81.507
1227.9000, -83.337
1228.0000,-210.000
1228.1000, -80.331
1228.2000, -82.466
1228.3000, -84.436
1228.4000, -82.053
1228.5000, -91.263
1228.6000, -83.562
1228.7000, -82.400
1228.8000,-210.000
1228.9000,-210.000
1229.0000,-210.000
1229.1000, -78.698
1229.2000, -79.955
1229.3000, -82.951
1229.4000, -86.738
1229.5000, -82.830
1229.6000, -83.274
1229.7000, -81.694
1229.8000, -86.251
1229.9000, -82.767
1230.0000, -81.980
1230.1000, -83.196
1230.2000, -82.161
1230.3000, -82.359
1230.4000, -87.501
1230.5000, -84.819
1230.6000, -79.585
1230.7000, -81.738
1230.8000, -81.215
1230.9000, -85.687
1231.0000, -82.371
1231.1000, -83.747
1231.2000, -96.547
1231.3000, -79.442
1231.4000,-210.000
1231.5000, -86.688
1231.6000, -79.603
1231.7000, -80.676
1231.8000,-210.000
1231.9000, -82.527
1232.0000, -81.992
1232.1000, -80.355
1232.2000, -80.878
1232.3000, -80.443
1232.4000, -90.329
1232.5000, -80.467
1232.6000, -84.106
1232.7000,-210.000
1232.8000,-210.000
1232.9000, -77.148
1233.0000, -83.331
1233.1000, -82.590
1233.2000, -85.303
1233.3000, -84.852
1233.4000, -81.417
1233.5000, -80.933
1233.6000, -94.190
1233.7000, -83.854
1233.8000, -85.496
1233.9000, -80.697
1234.0000, -97.161
1234.1000, -82.663
1234.2000, -81.429
1234.3000, -81.845
1234.4000, -86.466
1234.5000, -84.698
1234.6000, -82.003
1234.7000, -85.029
1234.8000, -82.709
1234.9000, -82.433
1235.0000, -82.206
1235.1000, -81.042
1235.2000, -81.680
1235.3000, -82.165
1235.4000, -82.244
1235.5000, -81.242
1235.6000, -84.245
1235.7000, -81.442
1235.8000, -84.274
1235.9000, -85.043
1236.0000, -85.825
1236.1000, -80.825
1236.2000, -85.012
1236.3000, -83.396
1236.4000, -81.431
1236.5000, -82.810
1236.6000, -85.975
1236.7000, -84.521
1236.8000, -84.165
1236.9000, -80.619
1237.0000, -82.591
1237.1000, -82.129
1237.2000, -86.653
1237.3000, -79.389
1237.4000, -82.050
1237.5000, -83.159
1237.6000, -79.789
1237.7000, -80.686
1237.8000, -81.983
1237.9000, -81.304
1238.0000, -87.643
1238.1000,-210.000
1238.2000, -82.121
1238.3000, -78.770
1238.4000, -80.445
1238.5000, -87.531
1238.6000, -78.369
1238.7000, -82.651
1238.8000, -81.625
1238.9000, -84.174
1239.0000,-210.000
1239.1000, -80.133
1239.2000, -95.962
1239.3000, -78.246
1239.4000, -79.924
1239.5000, -82.652
1239.6000, -81.457
1239.7000,-210.000
1239.8000, -77.685
1239.9000,-210.000
1240.0000, -79.481
1240.1000,-210.000
1240.2000,-210.000
1240.3000, -77.533
1240.4000, -81.000
1240.5000, -81.636
1240.6000, -93.690
1240.7000, -82.300
1240.8000, -86.578
1240.9000, -79.204
1241.0000, -83.015
1241.1000, -80.481
1241.2000, -81.461
1241.3000, -82.197
1241.4000, -85.160
1241.5000, -82.988
1241.6000, -84.467
1241.7000, -80.102
1241.8000, -89.016
1241.9000, -79.863
1242.0000, -82.411
1242.1000, -85.593
1242.2000, -82.564
1242.3000, -83.367
1242.4000, -82.387
1242.5000, -81.694
1242.6000, -82.426
1242.7000, -81.732
1242.8000, -82.885
1242.9000, -84.336
1243.0000, -80.295
1243.1000, -80.218
1243.2000, -82.571
1243.3000, -80.581
1243.4000,-210.000
1243.5000, -86.585
1243.6000, -80.247
1243.7000, -81.608
1243.8000,-210.000
1243.9000, -79.793
1244.0000, -80.307
1244.1000, -82.993
1244.2000, -88.058
1244.3000, -79.291
1244.4000, -84.615
1244.5000, -81.609
1244.6000, -79.561
1244.7000, -82.301
1244.8000, -83.191
1244.9000,-210.000
1245.0000, -83.428
1245.1000, -79.237
1245.2000, -82.691
1245.3000, -83.359
1245.4000, -82.721
1245.5000, -82.607
1245.6000, -86.791
1245.7000, -81.422
1245.8000, -81.922
1245.9000, -82.597
1246.0000, -83.118
1246.1000, -80.262
1246.2000, -85.930
1246.3000, -85.057
1246.4000, -83.589
1246.5000, -83.591
1246.6000, -83.302
1246.7000, -82.623
1246.8000, -86.919
1246.9000, -89.005
1247.0000, -83.050
1247.1000, -81.150
1247.2000, -81.628
1247.3000, -89.911
1247.4000, -81.293
1247.5000, -84.341
1247.6000, -80.573
1247.7000, -81.893
1247.8000, -85.047
1247.9000, -81.591
1248.0000,-210.000
1248.1000, -83.927
1248.2000, -84.108
1248.3000, -84.466
1248.4000, -85.086
1248.5000, -80.940
1248.6000, -87.357
1248.7000, -82.599
1248.8000, -85.298
1248.9000, -82.549
1249.0000,-210.000
1249.1000, -78.260
1249.2000, -86.605
1249.3000, -81.706
1249.4000, -81.778
1249.5000, -86.947
1249.6000, -82.166
1249.7000, -90.059
1249.8000,-210.000
1249.9000, -82.044
1250.0000, -79.466
1250.1000, -81.930
1250.2000, -82.194
1250.3000, -84.555
1250.4000, -83.285
1250.5000, -82.601
1250.6000, -80.652
1250.7000, -85.370
1250.8000, -84.113
1250.9000, -86.637
1251.0000, -82.785
1251.1000, -83.327
1251.2000, -84.783
1251.3000, -86.105
1251.4000, -83.260
1251.5000, -83.129
1251.6000, -86.266
1251.7000, -86.188
1251.8000, -83.140
1251.9000, -82.334
1252.0000, -82.425
1252.1000, -84.601
1252.2000, -82.859
1252.3000, -83.359
1252.4000, -83.366
1252.5000,-210.000
1252.6000, -81.764
1252.7000, -84.590
1252.8000, -86.275
1252.9000, -83.435
1253.0000, -82.200
1253.1000, -88.013
1253.2000, -89.268
1253.3000, -82.171
1253.4000, -84.119
1253.5000, -82.852
1253.6000, -90.094
1253.7000, -82.862
1253.8000, -83.477
1253.9000, -84.136
1254.0000, -83.341
1254.1000, -82.388
1254.2000, -82.897
1254.3000, -81.654
1254.4000, -85.974
1254.5000, -86.858
1254.6000, -85.444
1254.7000, -82.144
1254.8000, -83.331
1254.9000, -84.475
1255.0000, -83.452
1255.1000, -85.543
1255.2000, -83.076
1255.3000, -84.731
1255.4000, -84.000
1255.5000, -81.981
1255.6000, -87.512
1255.7000, -85.651
1255.8000, -82.701
1255.9000, -83.561
1256.0000, -89.577
1256.1000, -82.261
1256.2000, -86.864
1256.3000, -83.171
1256.4000, -80.842
1256.5000,-210.000
1256.6000, -81.477
1256.7000, -84.577
1256.8000, -83.212
1256.9000, -79.090
1257.0000, -91.082
1257.1000, -82.850
1257.2000,-210.000
1257.3000, -82.141
1257.4000, -94.782
1257.5000,-210.000
1257.6000, -80.243
1257.7000, -98.840
1257.8000, -85.763
1257.9000, -84.284
1258.0000, -83.648
1258.1000, -80.139
1258.2000,-210.000
1258.3000,-210.000
1258.4000, -82.093
1258.5000,-210.000
1258.6000, -81.437
1258.7000, -85.196
1258.8000, -82.425
1258.9000, -82.466
1259.0000, -81.218
1259.1000, -82.136
1259.2000,-210.000
1259.3000, -82.933
1259.4000, -79.242
1259.5000, -88.909
1259.6000, -80.139
1259.7000,-210.000
1259.8000, -90.541
1259.9000, -81.461
1260.0000, -83.569
1260.1000, -82.789
1260.2000, -84.124
1260.3000, -82.255
1260.4000, -83.333
1260.5000,-210.000
1260.6000, -80.629
1260.7000,-210.000
1260.8000, -84.794
1260.9000, -84.629
1261.0000, -91.355
1261.1000, -79.271
1261.2000, -93.359
1261.3000, -83.589
1261.4000, -85.786
1261.5000,-210.000
1261.6000, -83.715
1261.7000, -80.121
1261.8000, -87.821
1261.9000,-210.000
1262.0000,-210.000
1262.1000, -82.814
1262.2000, -87.516
1262.3000, -81.892
1262.4000, -84.799
1262.5000, -87.607
1262.6000, -85.468
1262.7000, -83.851
1262.8000, -85.969
1262.9000, -83.434
1263.0000, -84.869
1263.1000, -83.771
1263.2000, -85.034
1263.3000, -83.172
1263.4000, -82.590
1263.5000, -82.587
1263.6000, -83.947
1263.7000, -84.163
1263.8000, -82.391
1263.9000, -92.807
1264.0000, -82.692
1264.1000, -82.935
1264.2000, -83.267
1264.3000, -89.278
1264.4000, -82.033
1264.5000, -83.657
1264.6000, -83.074
1264.7000, -83.370
1264.8000,-210.000
1264.9000, -85.325
1265.0000, -82.919
1265.1000, -82.249
1265.2000, -86.323
1265.3000, -83.196
1265.4000, -82.892
1265.5000, -83.933
1265.6000, -85.450
1265.7000, -85.493
1265.8000, -80.794
1265.9000, -82.319
1266.0000, -84.574
1266.1000, -86.271
1266.2000, -87.506
1266.3000, -87.146
1266.4000,-210.000
1266.5000, -79.708
1266.6000, -81.855
1266.7000, -84.020
1266.8000, -85.816
1266.9000, -91.804
1267.0000, -83.945
1267.1000, -85.064
1267.2000, -83.197
1267.3000, -83.051
1267.4000, -89.152
1267.5000, -84.184
1267.6000,-210.000
1267.7000, -83.782
1267.8000, -85.184
1267.9000, -83.302
1268.0000, -87.707
1268.1000, -83.684
1268.2000, -83.433
1268.3000, -86.263
1268.4000, -82.906
1268.5000, -83.673
1268.6000, -81.968
1268.7000, -83.921
1268.8000,-210.000
1268.9000, -80.663
1269.0000,-210.000
1269.1000, -83.301
1269.2000, -98.912
1269.3000, -81.222
1269.4000, -83.021
1269.5000, -86.014
1269.6000, -83.486
1269.7000,-101.992
1269.8000, -81.163
1269.9000, -82.798
1270.0000, -81.418
1270.1000, -88.137
1270.2000, -83.261
1270.3000, -83.591
1270.4000, -83.804
1270.5000, -86.478
1270.6000, -83.884
1270.7000, -86.160
1270.8000, -88.683
1270.9000, -87.145
1271.0000,-210.000
1271.1000, -83.183
1271.2000, -82.587
1271.3000, -81.213
1271.4000,-210.000
1271.5000, -89.563
1271.6000, -82.121
1271.7000, -84.109
1271.8000, -84.602
1271.9000, -82.876
1272.0000, -84.320
1272.1000, -82.922
1272.2000, -87.260
1272.3000, -90.148
1272.4000, -83.647
1272.5000, -83.131
1272.6000, -84.130
1272.7000, -81.848
1272.8000, -84.382
1272.9000, -83.691
1273.0000, -83.770
1273.1000, -80.492
1273.2000, -85.084
1273.3000, -87.941
1273.4000, -83.395
1273.5000, -83.170
1273.6000, -82.021
1273.7000, -89.961
1273.8000, -82.815
1273.9000, -83.696
1274.0000, -82.630
1274.1000, -81.783
1274.2000, -83.131
1274.3000, -89.149
1274.4000, -83.917
1274.5000, -86.118
1274.6000, -89.239
1274.7000, -89.461
1274.8000, -84.693
1274.9000, -82.711
1275.0000, -84.197
1275.1000, -87.147
1275.2000, -83.224
1275.3000, -84.463
1275.4000, -85.252
1275.5000, -85.820
1275.6000, -84.252
1275.7000, -81.755
1275.8000, -85.410
1275.9000, -86.348
1276.0000, -83.844
1276.1000, -82.214
1276.2000, -89.134
1276.3000, -83.035
1276.4000, -87.882
1276.5000, -84.164
1276.6000, -82.209
1276.7000, -86.642
1276.8000, -84.630
1276.9000, -87.494
1277.0000, -82.030
1277.1000, -85.243
1277.2000, -84.900
1277.3000, -82.513
1277.4000, -80.986
1277.5000,-210.000
1277.6000, -87.796
1277.7000, -84.604
1277.8000, -83.412
1277.9000, -80.630
1278.0000,-210.000
1278.1000,-210.000
1278.2000, -84.727
1278.3000, -87.432
1278.4000, -84.023
1278.5000, -81.499
1278.6000, -82.215
1278.7000, -85.442
1278.8000,-210.000
1278.9000, -84.291
1279.0000, -87.044
1279.1000, -81.703
1279.2000, -85.463
1279.3000, -85.375
1279.4000, -89.712
1279.5000, -82.272
1279.6000, -82.981
1279.7000, -81.215
1279.8000,-210.000
1279.9000, -82.608
1280.0000, -82.187
1280.1000,-210.000
1280.2000, -80.607
1280.3000,-210.000
1280.4000, -79.793
1280.5000, -91.478
1280.6000, -88.245
1280.7000,-210.000
1280.8000, -80.785
1280.9000, -88.288
1281.0000, -83.861
1281.1000, -82.452
1281.2000, -89.553
1281.3000, -80.358
1281.4000, -92.853
1281.5000, -80.575
1281.6000,-210.000
1281.7000, -82.115
1281.8000, -96.312
1281.9000, -80.970
1282.0000, -85.738
1282.1000, -92.478
1282.2000, -88.597
1282.3000, -87.864
1282.4000, -81.581
1282.5000, -81.548
1282.6000, -81.947
1282.7000, -88.712
1282.8000,-210.000
1282.9000, -86.070
1283.0000, -81.889
1283.1000, -90.070
1283.2000, -83.943
1283.3000, -83.241
1283.4000, -85.756
1283.5000, -83.229
1283.6000, -84.018
1283.7000, -87.673
1283.8000, -82.794
1283.9000, -84.941
1284.0000, -81.443
1284.1000, -85.326
1284.2000, -88.120
1284.3000, -91.083
1284.4000, -83.460
1284.5000, -81.505
1284.6000, -83.048
1284.7000, -85.964
1284.8000, -85.122
1284.9000, -81.796
1285.0000, -82.624
1285.1000, -81.914
1285.2000,-210.000
1285.3000, -84.621
1285.4000, -84.500
1285.5000, -86.734
1285.6000, -82.570
1285.7000, -84.359
1285.8000, -84.260
1285.9000, -87.633
1286.0000, -82.559
1286.1000, -86.834
1286.2000, -83.634
1286.3000, -82.015
1286.4000, -87.355
1286.5000, -84.954
1286.6000, -83.885
1286.7000, -82.514
1286.8000, -85.618
1286.9000, -84.685
1287.0000, -87.999
1287.1000, -84.810
1287.2000, -84.049
1287.3000, -83.012
1287.4000, -83.959
1287.5000, -83.397
1287.6000, -82.964
1287.7000,-210.000
1287.8000, -84.465
1287.9000, -83.191
1288.0000, -83.868
1288.1000, -84.881
1288.2000, -82.243
1288.3000, -82.889
1288.4000, -82.593
1288.5000, -84.347
1288.6000, -81.827
1288.7000, -84.903
1288.8000,-210.000
1288.9000, -88.107
1289.0000, -79.263
1289.1000, -82.694
1289.2000, -82.477
1289.3000, -85.262
1289.4000, -85.433
1289.5000, -83.730
1289.6000, -84.620
1289.7000, -84.171
1289.8000, -83.725
1289.9000, -83.464
1290.0000, -81.040
1290.1000, -87.855
1290.2000, -81.315
1290.3000, -85.278
1290.4000, -86.289
1290.5000, -83.039
1290.6000, -95.645
1290.7000, -83.361
1290.8000, -85.727
1290.9000, -80.801
1291.0000, -87.222
1291.1000, -86.618
1291.2000, -83.674
1291.3000, -83.743
1291.4000, -82.658
1291.5000, -86.495
1291.6000, -86.099
1291.7000, -84.209
1291.8000, -84.086
1291.9000, -85.348
1292.0000, -82.546
1292.1000, -83.378
1292.2000, -80.374
1292.3000, -83.959
1292.4000, -88.336
1292.5000, -80.617
1292.6000,-210.000
1292.7000, -83.359
1292.8000, -84.807
1292.9000, -80.585
1293.0000,-210.000
1293.1000,-210.000
1293.2000, -81.824
1293.3000, -82.928
1293.4000, -82.720
1293.5000, -81.581
1293.6000, -85.315
1293.7000, -82.074
1293.8000,-210.000
1293.9000, -79.692
1294.0000,-210.000
1294.1000, -86.566
1294.2000, -86.109
1294.3000, -79.894
1294.4000, -85.297
1294.5000, -85.903
1294.6000, -82.137
1294.7000,-210.000
1294.8000, -83.773
1294.9000, -85.459
1295.0000, -85.963
1295.1000, -84.823
1295.2000, -82.891
1295.3000, -86.623
1295.4000, -82.753
1295.5000, -83.366
1295.6000, -83.818
1295.7000, -87.078
1295.8000, -87.741
1295.9000, -79.812
1296.0000, -83.364
1296.1000, -84.727
1296.2000,-210.000
1296.3000, -84.396
1296.4000, -82.886
1296.5000, -84.706
1296.6000, -86.022
1296.7000, -82.331
1296.8000, -82.642
1296.9000, -88.619
1297.0000, -85.188
1297.1000, -85.373
1297.2000, -87.266
1297.3000, -83.338
1297.4000, -81.530
1297.5000, -85.332
1297.6000, -91.596
1297.7000, -89.454
1297.8000, -85.442
1297.9000, -85.547
1298.0000, -83.395
1298.1000, -80.880
1298.2000, -85.625
1298.3000, -78.426
1298.4000, -83.165
1298.5000,-210.000
1298.6000, -79.884
1298.7000,-210.000
1298.8000, -81.922
1298.9000, -82.305
1299.0000, -84.026
1299.1000,-210.000
1299.2000, -80.490
1299.3000,-210.000
1299.4000, -83.797
1299.5000, -79.617
1299.6000, -84.630
1299.7000, -83.508
1299.8000, -86.895
1299.9000, -87.403
1300.0000, -83.478
1300.1000, -78.453
1300.2000, -86.937
1300.3000, -86.219
1300.4000,-210.000
1300.5000, -83.028
1300.6000, -82.329
1300.7000, -81.951
1300.8000, -84.768
1300.9000, -92.206
1301.0000, -81.090
1301.1000,-210.000
1301.2000, -83.503
1301.3000, -82.858
1301.4000, -82.242
1301.5000, -81.153
1301.6000,-210.000
1301.7000, -79.794
1301.8000, -96.460
1301.9000, -82.009
1302.0000, -89.674
1302.1000, -80.216
1302.2000,-210.000
1302.3000, -85.447
1302.4000, -89.955
1302.5000, -83.452
1302.6000, -84.666
1302.7000, -82.053
1302.8000, -84.924
1302.9000, -81.581
1303.0000, -82.392
1303.1000,-210.000
1303.2000, -83.875
1303.3000, -81.830
1303.4000, -85.636
1303.5000, -79.433
1303.6000, -84.364
1303.7000,-103.439
1303.8000, -82.445
1303.9000,-210.000
1304.0000, -85.908
1304.1000, -85.561
1304.2000, -83.678
1304.3000, -82.642
1304.4000, -83.789
1304.5000, -88.877
1304.6000, -83.914
1304.7000, -83.017
1304.8000, -85.162
1304.9000, -81.475
1305.0000, -95.566
1305.1000, -84.241
1305.2000, -83.411
1305.3000, -90.024
1305.4000, -81.179
1305.5000, -79.846
1305.6000, -87.044
1305.7000,-210.000
1305.8000,-210.000
1305.9000, -86.010
1306.0000, -78.854
1306.1000, -82.280
1306.2000,-210.000
1306.3000, -81.365
1306.4000, -86.774
1306.5000, -83.408
1306.6000, -86.975
1306.7000, -84.302
1306.8000, -83.621
1306.9000, -83.599
1307.0000, -84.644
1307.1000, -82.937
1307.2000,-210.000
1307.3000, -82.769
1307.4000, -88.149
1307.5000, -83.182
1307.6000, -84.811
1307.7000, -83.244
1307.8000, -89.037
1307.9000, -83.339
1308.0000, -80.966
1308.1000, -83.794
1308.2000, -85.102
1308.3000, -87.800
1308.4000, -83.981
1308.5000, -84.497
1308.6000, -80.522
1308.7000,-210.000
1308.8000, -82.310
1308.9000, -84.645
1309.0000, -81.661
1309.1000, -89.402
1309.2000, -84.902
1309.3000, -87.076
1309.4000, -82.312
1309.5000, -87.832
1309.6000, -79.397
1309.7000,-210.000
1309.8000, -83.876
1309.9000, -84.611
1310.0000, -84.359
1310.1000, -84.135
1310.2000,-210.000
1310.3000, -80.662
1310.4000,-210.000
1310.5000, -83.201
1310.6000, -81.774
1310.7000,-210.000
1310.8000, -87.278
1310.9000, -84.594
1311.0000, -82.401
1311.1000, -84.282
1311.2000, -84.441
1311.3000, -84.692
1311.4000, -81.550
1311.5000, -91.105
1311.6000, -83.561
1311.7000,-210.000
1311.8000, -84.023
1311.9000, -79.980
1312.0000,-210.000
1312.1000, -83.479
1312.2000, -83.468
1312.3000, -79.384
1312.4000, -83.453
1312.5000, -83.276
1312.6000,-210.000
1312.7000, -83.102
1312.8000,-210.000
1312.9000, -80.311
1313.0000, -82.414
1313.1000, -80.329
1313.2000, -81.996
1313.3000,-210.000
1313.4000, -82.578
1313.5000, -84.388
1313.6000, -83.117
1313.7000, -81.206
1313.8000,-210.000
1313.9000, -84.335
1314.0000, -86.672
1314.1000, -82.567
1314.2000, -82.121
1314.3000, -85.651
1314.4000, -96.324
1314.5000, -90.009
1314.6000, -83.873
1314.7000, -84.168
1314.8000, -83.384
1314.9000, -84.650
1315.0000, -84.996
1315.1000, -81.012
1315.2000, -89.628
1315.3000, -86.034
1315.4000, -82.149
1315.5000, -80.621
1315.6000,-210.000
1315.7000, -90.684
1315.8000, -89.612
1315.9000, -82.869
1316.0000, -81.904
1316.1000,-210.000
1316.2000, -83.162
1316.3000, -86.188
1316.4000, -83.245
1316.5000, -81.670
1316.6000, -83.530
1316.7000,-210.000
1316.8000, -82.640
1316.9000, -85.056
1317.0000, -81.691
1317.1000, -81.139
1317.2000, -84.285
1317.3000, -84.141
1317.4000, -87.341
1317.5000, -82.228
1317.6000, -88.082
1317.7000, -80.511
1317.8000, -81.983
1317.9000, -84.334
1318.0000, -91.334
1318.1000, -81.047
1318.2000, -86.337
1318.3000, -82.802
1318.4000, -86.009
1318.5000, -81.523
1318.6000, -79.384
1318.7000, -84.348
1318.8000, -80.433
1318.9000,-210.000
1319.0000, -78.374
1319.1000, -80.895
1319.2000, -77.796
1319.3000, -82.524
1319.4000, -78.099
1319.5000, -79.733
1319.6000, -80.057
1319.7000, -80.596
1319.8000, -80.513
1319.9000, -79.372
1320.0000, -81.093
1320.1000, -78.671
1320.2000, -83.278
1320.3000, -80.230
1320.4000, -82.575
1320.5000, -80.518
1320.6000, -80.891
1320.7000, -82.241
1320.8000, -83.113
1320.9000, -81.298
1321.0000, -84.756
1321.1000, -80.915
1321.2000, -82.735
1321.3000, -87.294
1321.4000, -82.071
1321.5000, -83.240
1321.6000, -84.859
1321.7000, -83.110
1321.8000, -84.688
1321.9000, -83.287
1322.0000, -84.467
1322.1000, -84.043
1322.2000,-210.000
1322.3000, -82.082
1322.4000, -81.595
1322.5000, -80.054
1322.6000, -84.957
1322.7000,-210.000
1322.8000, -83.403
1322.9000, -79.179
1323.0000, -84.876
1323.1000, -81.930
1323.2000, -83.107
1323.3000, -86.607
1323.4000, -82.299
1323.5000,-210.000
1323.6000, -78.847
1323.7000, -79.739
1323.8000,-210.000
1323.9000, -81.400
1324.0000, -82.868
1324.1000, -79.723
1324.2000,-210.000
1324.3000,-210.000
1324.4000, -78.075
1324.5000, -81.204
1324.6000,-210.000
1324.7000,-210.000
1324.8000, -79.530
1324.9000,-210.000
1325.0000, -80.450
1325.1000, -84.868
1325.2000, -80.558
1325.3000, -86.085
1325.4000, -81.899
1325.5000, -85.017
1325.6000, -81.835
1325.7000, -84.352
1325.8000, -84.886
1325.9000, -80.775
1326.0000, -86.955
1326.1000, -81.232
1326.2000,-210.000
1326.3000, -84.017
1326.4000, -82.780
1326.5000, -90.770
1326.6000,-210.000
1326.7000, -81.986
1326.8000, -82.401
1326.9000, -85.048
1327.0000, -83.225
1327.1000, -86.204
1327.2000, -85.008
1327.3000, -83.619
1327.4000, -83.439
1327.5000, -82.782
1327.6000,-101.594
1327.7000, -87.526
1327.8000, -81.486
1327.9000, -82.145
1328.0000, -82.891
1328.1000, -83.056
1328.2000, -85.035
1328.3000, -92.132
1328.4000, -80.026
1328.5000,-210.000
1328.6000,-210.000
1328.7000, -82.431
1328.8000, -84.419
1328.9000, -82.597
1329.0000, -87.758
1329.1000, -85.278
1329.2000, -82.218
1329.3000, -89.049
1329.4000, -82.314
1329.5000, -85.645
1329.6000, -95.316
1329.7000, -83.416
1329.8000, -83.124
1329.9000, -85.363
1330.0000, -88.342
1330.1000,-210.000
1330.2000, -80.615
1330.3000, -83.955
1330.4000, -82.070
1330.5000, -82.467
1330.6000, -92.240
1330.7000, -81.547
1330.8000, -86.980
1330.9000,-210.000
1331.0000, -80.611
1331.1000, -85.535
1331.2000,-210.000
1331.3000,-210.000
1331.4000,-210.000
1331.5000, -82.372
1331.6000, -81.518
1331.7000, -83.521
1331.8000, -83.667
1331.9000, -85.066
1332.0000, -84.942
1332.1000, -87.475
1332.2000, -92.034
1332.3000, -81.700
1332.4000, -84.280
1332.5000, -84.232
1332.6000, -85.971
1332.7000, -84.722
1332.8000, -82.125
1332.9000, -82.037
1333.0000, -85.305
1333.1000, -82.547
1333.2000, -83.339
1333.3000, -86.130
1333.4000, -80.956
1333.5000, -84.848
1333.6000, -84.577
1333.7000, -82.212
1333.8000, -81.637
1333.9000, -81.528
1334.0000, -82.905
1334.1000, -81.822
1334.2000, -81.456
1334.3000, -81.338
1334.4000, -83.533
1334.5000, -80.169
1334.6000, -80.882
1334.7000, -82.766
1334.8000, -82.021
1334.9000, -81.714
1335.0000, -80.160
1335.1000, -80.229
1335.2000, -81.465
1335.3000, -79.601
1335.4000, -80.873
1335.5000, -81.058
1335.6000, -83.630
1335.7000, -79.700
1335.8000, -79.974
1335.9000, -83.324
1336.0000, -82.101
1336.1000, -78.861
1336.2000,-210.000
1336.3000, -80.543
1336.4000,-210.000
1336.5000,-210.000
1336.6000, -76.416
1336.7000, -83.100
1336.8000, -84.126
1336.9000, -81.821
1337.0000, -82.758
1337.1000, -81.984
1337.2000, -81.005
1337.3000, -89.307
1337.4000, -85.319
1337.5000, -80.394
1337.6000, -83.277
1337.7000,-210.000
1337.8000, -80.509
1337.9000, -83.236
1338.0000, -81.548
1338.1000, -82.387
1338.2000, -80.760
1338.3000, -81.741
1338.4000, -80.539
1338.5000, -81.488
1338.6000, -79.403
1338.7000, -81.088
1338.8000, -79.033
1338.9000, -78.446
1339.0000, -78.881
1339.1000, -79.598
1339.2000, -78.320
1339.3000, -80.890
1339.4000, -79.671
1339.5000, -80.614
1339.6000, -80.223
1339.7000, -82.537
1339.8000, -81.570
1339.9000, -82.262
1340.0000, -81.370
1340.1000, -81.760
1340.2000, -80.844
1340.3000, -79.472
1340.4000, -83.688
1340.5000, -80.152
1340.6000,-210.000
1340.7000, -88.251
1340.8000, -76.310
1340.9000, -82.959
1341.0000, -80.636
1341.1000,-210.000
1341.2000, -79.408
1341.3000, -79.755
1341.4000, -79.802
1341.5000, -79.878
1341.6000,-210.000
1341.7000, -79.548
1341.8000, -81.383
1341.9000, -83.443
1342.0000, -79.610
1342.1000, -81.868
1342.2000, -82.161
1342.3000, -83.357
1342.4000, -83.878
1342.5000, -87.678
1342.6000, -82.642
1342.7000, -80.037
1342.8000, -82.185
1342.9000, -86.154
1343.0000, -82.288
1343.1000, -82.347
1343.2000, -91.072
1343.3000, -81.000
1343.4000, -84.226
1343.5000, -79.187
1343.6000,-210.000
1343.7000, -85.331
1343.8000, -81.010
1343.9000, -81.586
1344.0000, -81.968
1344.1000,-210.000
1344.2000, -81.292
1344.3000, -88.013
1344.4000, -81.608
1344.5000, -90.789
1344.6000, -82.489
1344.7000, -83.231
1344.8000, -83.311
1344.9000, -83.724
1345.0000, -82.820
1345.1000, -83.733
1345.2000, -85.157
1345.3000, -85.844
1345.4000, -88.493
1345.5000, -85.403
1345.6000, -85.230
1345.7000, -82.632
1345.8000, -82.497
1345.9000, -84.934
1346.0000, -85.854
1346.1000, -83.315
1346.2000, -83.550
1346.3000, -90.145
1346.4000, -87.401
1346.5000, -82.975
1346.6000, -84.689
1346.7000, -84.473
1346.8000, -83.716
1346.9000, -82.533
1347.0000, -87.003
1347.1000, -85.024
1347.2000, -88.573
1347.3000, -92.760
1347.4000, -83.137
1347.5000, -86.233
1347.6000, -85.296
1347.7000, -83.340
1347.8000, -86.201
1347.9000, -82.276
1348.0000,-210.000
1348.1000, -96.154
1348.2000, -86.195
1348.3000, -82.961
1348.4000, -84.367
1348.5000, -83.694
1348.6000, -85.250
1348.7000, -84.273
1348.8000, -84.761
1348.9000, -82.222
1349.0000, -83.533
1349.1000, -82.655
1349.2000, -92.152
1349.3000, -82.435
1349.4000,-210.000
1349.5000, -80.308
1349.6000, -87.551
1349.7000, -84.584
1349.8000, -88.692
1349.9000, -87.137
1350.0000, -84.193
1350.1000, -83.553
1350.2000, -82.584
1350.3000, -84.765
1350.4000, -94.936
1350.5000, -82.497
1350.6000, -84.509
1350.7000, -84.567
1350.8000, -81.432
1350.9000, -85.674
1351.0000, -90.429
1351.1000, -83.851
1351.2000, -84.491
1351.3000, -86.116
1351.4000, -80.051
1351.5000, -83.927
1351.6000, -86.813
1351.7000, -87.954
1351.8000, -81.700
1351.9000,-210.000
1352.0000, -83.334
1352.1000, -81.994
1352.2000, -84.580
1352.3000, -85.277
1352.4000, -81.666
1352.5000, -84.781
1352.6000, -86.166
1352.7000, -81.685
1352.8000,-210.000
1352.9000, -80.476
1353.0000, -83.415
1353.1000, -83.470
1353.2000, -83.243
1353.3000, -86.835
1353.4000, -82.691
1353.5000, -85.835
1353.6000, -83.005
1353.7000, -83.987
1353.8000, -83.267
1353.9000, -83.911
1354.0000, -82.184
1354.1000, -82.535
1354.2000, -81.891
1354.3000, -82.870
1354.4000, -81.335
1354.5000, -84.970
1354.6000, -82.663
1354.7000, -81.492
1354.8000, -85.761
1354.9000, -88.538
1355.0000, -88.515
1355.1000, -82.522
1355.2000, -85.256
1355.3000, -84.049
1355.4000, -81.702
1355.5000, -87.849
1355.6000, -86.069
1355.7000, -83.814
1355.8000, -83.734
1355.9000, -82.364
1356.0000, -80.571
1356.1000, -83.873
1356.2000, -84.697
1356.3000, -81.195
1356.4000, -81.232
1356.5000, -81.561
1356.6000, -82.015
1356.7000, -81.072
1356.8000, -79.845
1356.9000, -80.725
1357.0000, -81.353
1357.1000, -79.500
1357.2000, -84.809
1357.3000, -79.855
1357.4000, -80.723
1357.5000, -81.270
1357.6000, -82.135
1357.7000, -80.943
1357.8000, -80.451
1357.9000, -81.733
1358.0000, -80.863
1358.1000, -85.888
1358.2000, -79.570
1358.3000, -81.232
1358.4000, -82.483
1358.5000, -85.441
1358.6000,-210.000
1358.7000, -79.740
1358.8000, -82.602
1358.9000,-210.000
1359.0000, -81.657
1359.1000, -81.250
1359.2000, -83.432
1359.3000, -81.923
1359.4000, -93.099
1359.5000, -85.815
1359.6000, -82.220
1359.7000, -90.254
1359.8000, -84.094
1359.9000, -82.141
1360.0000, -83.440
1360.1000,-210.000
1360.2000, -82.800
1360.3000, -83.270
1360.4000, -87.063
1360.5000, -82.764
1360.6000, -88.768
1360.7000, -83.417
1360.8000, -82.844
1360.9000, -85.521
1361.0000, -83.213
1361.1000, -85.973
1361.2000, -86.034
1361.3000, -85.607
1361.4000, -83.919
1361.5000, -84.114
1361.6000, -83.878
1361.7000, -85.410
1361.8000, -86.683
1361.9000, -87.928
1362.0000, -84.063
1362.1000, -87.692
1362.2000, -93.510
1362.3000, -81.785
1362.4000, -87.214
1362.5000, -84.571
1362.6000, -82.553
1362.7000,-210.000
1362.8000, -86.918
1362.9000, -81.126
1363.0000, -83.889
1363.1000, -88.323
1363.2000, -83.345
1363.3000, -81.968
1363.4000, -89.624
1363.5000, -85.573
1363.6000, -88.995
1363.7000, -85.291
1363.8000, -83.432
1363.9000, -82.861
1364.0000, -86.607
1364.1000, -87.143
1364.2000, -85.530
1364.3000, -84.774
1364.4000, -81.799
1364.5000,-210.000
1364.6000, -80.001
1364.7000, -89.833
1364.8000, -81.296
1364.9000, -83.673
1365.0000, -85.193
1365.1000, -82.237
1365.2000, -85.579
1365.3000, -88.134
1365.4000, -81.818
1365.5000, -84.107
1365.6000, -84.630
1365.7000, -87.309
1365.8000, -85.850
1365.9000, -83.082
1366.0000,-210.000
1366.1000, -82.463
1366.2000, -84.819
1366.3000, -83.818
1366.4000, -86.438
1366.5000, -84.493
1366.6000, -87.606
1366.7000, -85.631
1366.8000, -84.052
1366.9000, -85.053
1367.0000, -87.371
1367.1000, -83.280
1367.2000, -95.296
1367.3000, -85.356
1367.4000, -82.356
1367.5000, -85.035
1367.6000, -82.995
1367.7000, -87.629
1367.8000, -84.522
1367.9000, -86.911
1368.0000, -85.087
1368.1000, -82.758
1368.2000, -83.215
1368.3000, -83.295
1368.4000, -86.931
1368.5000, -83.683
1368.6000, -87.891
1368.7000, -81.392
1368.8000, -84.660
1368.9000, -84.127
1369.0000, -85.320
1369.1000, -81.079
1369.2000,-210.000
1369.3000, -80.364
1369.4000, -85.649
1369.5000, -81.060
1369.6000, -85.616
1369.7000, -84.154
1369.8000, -88.949
1369.9000, -89.087
1370.0000,-210.000
1370.1000, -79.358
1370.2000,-210.000
1370.3000, -84.182
1370.4000, -81.722
1370.5000, -85.927
1370.6000, -90.304
1370.7000,-210.000
1370.8000, -79.281
1370.9000, -82.312
1371.0000, -82.353
1371.1000, -88.001
1371.2000, -96.799
1371.3000, -82.630
1371.4000, -81.739
1371.5000, -81.907
1371.6000,-210.000
1371.7000, -84.439
1371.8000, -82.456
1371.9000, -84.660
1372.0000, -85.224
1372.1000, -93.281
1372.2000,-210.000
1372.3000, -79.166
1372.4000, -81.574
1372.5000, -87.373
1372.6000, -80.313
1372.7000, -82.396
1372.8000, -83.107
1372.9000, -91.640
1373.0000, -87.884
1373.1000, -92.859
1373.2000, -82.059
1373.3000,-210.000
1373.4000, -82.274
1373.5000, -82.777
1373.6000, -81.481
1373.7000, -86.657
1373.8000, -91.548
1373.9000, -81.715
1374.0000, -87.164
1374.1000, -82.550
1374.2000, -82.381
1374.3000,-210.000
1374.4000, -82.108
1374.5000, -85.131
1374.6000,-210.000
1374.7000, -79.828
1374.8000, -88.799
1374.9000, -88.755
1375.0000, -83.242
1375.1000, -83.461
1375.2000, -81.717
1375.3000, -83.661
1375.4000, -84.527
1375.5000, -99.567
1375.6000, -84.350
1375.7000,-210.000
1375.8000, -88.906
1375.9000, -79.358
1376.0000,-110.568
1376.1000, -80.673
1376.2000, -88.874
1376.3000,-210.000
1376.4000, -80.560
1376.5000, -83.621
1376.6000, -78.690
1376.7000,-210.000
1376.8000, -86.107
1376.9000, -81.582
1377.0000, -91.382
1377.1000, -84.486
1377.2000, -82.590
1377.3000,-210.000
1377.4000, -85.917
1377.5000, -93.505
1377.6000, -81.236
1377.7000, -82.953
1377.8000, -88.454
1377.9000, -83.607
1378.0000,-210.000
1378.1000, -81.199
1378.2000, -88.830
1378.3000, -83.371
1378.4000,-210.000
1378.5000, -83.665
1378.6000, -85.247
1378.7000, -82.331
1378.8000,-210.000
1378.9000, -84.196
1379.0000, -84.083
1379.1000, -84.744
1379.2000, -87.016
1379.3000, -84.728
1379.4000, -83.075
1379.5000, -83.010
1379.6000, -81.778
1379.7000, -84.312
1379.8000, -83.720
1379.9000, -85.053
1380.0000,-210.000
1380.1000, -82.893
1380.2000, -85.813
1380.3000, -82.368
1380.4000, -83.731
1380.5000, -82.978
1380.6000, -86.002
1380.7000, -91.741
1380.8000, -82.111
1380.9000, -86.529
1381.0000, -86.256
1381.1000, -84.693
1381.2000, -82.063
1381.3000, -85.788
1381.4000, -85.106
1381.5000, -84.757
1381.6000, -84.686
1381.7000, -90.681
1381.8000, -84.203
1381.9000, -83.871
1382.0000, -81.748
1382.1000, -84.396
1382.2000, -82.243
1382.3000,-210.000
1382.4000, -88.313
1382.5000, -82.478
1382.6000, -83.951
1382.7000, -85.556
1382.8000, -83.293
1382.9000, -86.246
1383.0000, -84.243
1383.1000, -91.179
1383.2000, -83.556
1383.3000, -84.671
1383.4000, -84.058
1383.5000, -82.996
1383.6000, -83.198
1383.7000, -99.293
1383.8000, -82.639
1383.9000,-210.000
1384.0000, -80.191
1384.1000,-210.000
1384.2000, -81.006
1384.3000, -88.001
1384.4000, -81.550
1384.5000,-210.000
1384.6000, -84.600
1384.7000, -82.033
1384.8000, -80.196
1384.9000,-210.000
1385.0000, -86.967
1385.1000, -82.195
1385.2000,-210.000
1385.3000, -88.466
1385.4000, -82.526
1385.5000, -90.027
1385.6000, -83.461
1385.7000, -82.870
1385.8000, -81.115
1385.9000, -87.526
1386.0000, -84.319
1386.1000,-210.000
1386.2000, -83.266
1386.3000, -82.307
1386.4000, -85.498
1386.5000, -82.371
1386.6000, -83.762
1386.7000, -86.559
1386.8000, -91.727
1386.9000, -82.838
1387.0000, -86.026
1387.1000, -83.771
1387.2000, -85.506
1387.3000, -83.229
1387.4000, -85.890
1387.5000, -87.202
1387.6000, -85.323
1387.7000, -83.517
1387.8000, -82.504
1387.9000, -85.374
1388.0000, -95.624
1388.1000, -94.225
1388.2000, -82.692
1388.3000, -92.730
1388.4000, -83.428
1388.5000, -83.220
1388.6000, -81.436
1388.7000, -84.831
1388.8000, -89.903
1388.9000, -83.366
1389.0000, -85.370
1389.1000, -82.322
1389.2000, -82.411
1389.3000, -82.086
1389.4000, -89.915
1389.5000, -82.514
1389.6000, -87.896
1389.7000,-210.000
1389.8000, -81.738
1389.9000, -88.142
1390.0000, -84.183
1390.1000,-210.000
1390.2000, -81.045
1390.3000, -81.558
1390.4000,-210.000
1390.5000, -81.261
1390.6000, -82.177
1390.7000, -83.025
1390.8000, -90.771
1390.9000,-210.000
1391.0000, -82.408
1391.1000, -88.027
1391.2000, -89.051
1391.3000, -82.001
1391.4000, -88.818
1391.5000, -82.612
1391.6000, -86.539
1391.7000, -80.792
1391.8000, -84.049
1391.9000, -87.045
1392.0000,-210.000
1392.1000, -80.662
1392.2000, -84.934
1392.3000,-210.000
1392.4000, -86.044
1392.5000, -83.953
1392.6000, -87.590
1392.7000, -82.014
1392.8000, -79.273
1392.9000, -83.141
1393.0000, -82.792
1393.1000, -90.428
1393.2000, -88.623
1393.3000, -85.238
1393.4000, -96.376
1393.5000, -84.955
1393.6000, -88.505
1393.7000, -84.409
1393.8000, -85.675
1393.9000, -83.656
1394.0000, -85.363
1394.1000, -90.165
1394.2000, -82.279
1394.3000, -81.543
1394.4000, -86.850
1394.5000, -83.046
1394.6000, -84.243
1394.7000, -82.992
1394.8000, -83.550
1394.9000, -85.729
1395.0000, -83.806
1395.1000, -88.452
1395.2000, -86.703
1395.3000, -84.075
1395.4000, -81.776
1395.5000, -84.807
1395.6000, -82.606
1395.7000, -86.872
1395.8000, -83.868
1395.9000, -83.681
1396.0000, -83.843
1396.1000,-210.000
1396.2000, -81.142
1396.3000,-210.000
1396.4000, -82.349
1396.5000, -90.077
1396.6000, -84.098
1396.7000, -84.414
1396.8000,-210.000
1396.9000, -82.525
1397.0000, -80.894
1397.1000, -84.292
1397.2000, -83.070
1397.3000, -94.426
1397.4000, -81.835
1397.5000, -85.061
1397.6000, -95.286
1397.7000, -84.241
1397.8000, -82.625
1397.9000, -85.095
1398.0000, -87.082
1398.1000, -81.839
1398.2000, -95.336
1398.3000, -87.500
1398.4000, -82.920
1398.5000, -83.119
1398.6000, -84.624
1398.7000, -83.560
1398.8000, -82.243
1398.9000, -88.489
1399.0000, -85.475
1399.1000, -82.403
1399.2000, -82.956
1399.3000, -84.063
1399.4000, -86.894
1399.5000, -85.037
1399.6000, -83.564
1399.7000, -85.828
1399.8000, -85.560
1399.9000, -86.846
1400.0000, -83.420
1400.1000, -84.077
1400.2000, -84.329
1400.3000, -85.309
1400.4000, -85.520
1400.5000, -87.486
1400.6000, -84.279
1400.7000, -83.594
1400.8000, -85.389
1400.9000,-210.000
1401.0000, -80.351
1401.1000, -84.765
1401.2000, -81.248
1401.3000, -86.650
1401.4000, -88.243
1401.5000, -85.114
1401.6000, -82.945
1401.7000, -83.209
1401.8000, -82.673
1401.9000, -83.267
1402.0000, -85.945
1402.1000, -84.057
1402.2000, -87.323
1402.3000, -83.232
1402.4000, -83.946
1402.5000, -83.490
1402.6000, -85.074
1402.7000, -83.410
1402.8000, -83.794
1402.9000, -87.043
1403.0000, -85.169
1403.1000, -84.089
1403.2000, -80.087
1403.3000,-210.000
1403.4000, -84.441
1403.5000, -79.417
1403.6000,-210.000
1403.7000, -79.207
1403.8000, -84.290
1403.9000,-210.000
1404.0000, -82.113
1404.1000, -82.678
1404.2000, -84.055
1404.3000, -86.882
1404.4000, -79.662
1404.5000, -94.471
1404.6000, -79.285
1404.7000,-210.000
1404.8000, -86.384
1404.9000, -81.761
1405.0000, -82.294
1405.1000, -85.185
1405.2000, -81.642
1405.3000, -83.793
1405.4000, -91.774
1405.5000, -84.001
1405.6000, -82.483
1405.7000, -82.586
1405.8000, -83.616
1405.9000, -86.306
1406.0000, -82.777
1406.1000,-210.000
1406.2000, -82.044
1406.3000, -79.636
1406.4000,-106.241
1406.5000, -85.976
1406.6000, -80.425
1406.7000,-210.000
1406.8000, -82.601
1406.9000, -85.005
1407.0000, -82.509
1407.1000, -80.099
1407.2000, -83.639
1407.3000, -89.793
1407.4000, -81.565
1407.5000, -83.357
1407.6000, -87.436
1407.7000, -83.048
1407.8000, -82.405
1407.9000, -87.316
1408.0000, -82.483
1408.1000, -85.355
1408.2000, -83.723
1408.3000, -85.694
1408.4000, -83.578
1408.5000, -83.047
1408.6000, -89.217
1408.7000, -78.712
1408.8000, -82.583
1408.9000, -93.431
1409.0000, -84.086
1409.1000, -83.245
1409.2000, -83.938
1409.3000, -79.220
1409.4000,-210.000
1409.5000, -79.659
1409.6000,-210.000
1409.7000, -83.413
1409.8000, -84.625
1409.9000, -86.114
1410.0000, -85.610
1410.1000, -83.316
1410.2000, -83.136
1410.3000, -84.431
1410.4000, -81.159
1410.5000, -88.040
1410.6000, -91.170
1410.7000, -86.243
1410.8000, -84.283
1410.9000, -82.350
1411.0000, -85.168
1411.1000, -83.381
1411.2000, -85.559
1411.3000, -80.324
1411.4000, -82.914
1411.5000, -84.075
1411.6000, -83.219
1411.7000, -83.521
1411.8000, -82.958
1411.9000, -83.734
1412.0000, -83.956
1412.1000, -82.615
1412.2000, -82.012
1412.3000, -95.534
1412.4000, -82.006
1412.5000, -83.050
1412.6000, -83.405
1412.7000, -83.664
1412.8000, -84.923
1412.9000, -79.680
1413.0000, -82.270
1413.1000, -84.567
1413.2000, -82.553
1413.3000, -81.710
1413.4000, -81.510
1413.5000, -81.755
1413.6000, -83.612
1413.7000, -82.166
1413.8000, -81.734
1413.9000, -80.801
1414.0000, -80.109
1414.1000, -83.719
1414.2000, -81.243
1414.3000,-210.000
1414.4000, -82.278
1414.5000, -83.512
1414.6000, -81.932
1414.7000, -81.491
1414.8000, -82.139
1414.9000,-210.000
1415.0000, -78.313
1415.1000, -81.476
1415.2000, -82.738
1415.3000, -86.785
1415.4000, -87.430
1415.5000, -82.368
1415.6000, -87.248
1415.7000, -84.800
1415.8000, -82.018
1415.9000, -81.806
1416.0000, -82.279
1416.1000, -83.043
1416.2000, -85.774
1416.3000, -82.494
1416.4000, -81.990
1416.5000, -86.958
1416.6000, -86.536
1416.7000, -85.573
1416.8000, -82.346
1416.9000, -83.515
1417.0000, -91.508
1417.1000, -82.204
1417.2000, -82.685
1417.3000, -85.156
1417.4000, -82.677
1417.5000, -82.946
1417.6000, -81.759
1417.7000, -79.432
1417.8000, -83.200
1417.9000,-210.000
1418.0000, -85.514
1418.1000, -82.312
1418.2000, -86.223
1418.3000, -82.783
1418.4000, -83.779
1418.5000, -83.267
1418.6000, -85.177
1418.7000, -82.490
1418.8000, -81.867
1418.9000, -83.812
1419.0000, -84.149
1419.1000,-210.000
1419.2000, -81.081
1419.3000,-210.000
1419.4000, -79.637
1419.5000, -84.089
1419.6000, -82.113
1419.7000,-210.000
1419.8000, -83.268
1419.9000, -82.240
1420.0000, -87.580
1420.1000, -82.731
1420.2000,-210.000
1420.3000, -80.469
1420.4000, -83.506
1420.5000, -82.842
1420.6000, -81.749
1420.7000, -85.526
1420.8000, -80.856
1420.9000, -83.235
1421.0000, -82.302
1421.1000, -89.332
1421.2000, -80.711
1421.3000, -88.447
1421.4000, -85.833
1421.5000, -84.808
1421.6000, -84.299
1421.7000, -82.809
1421.8000, -84.281
1421.9000, -82.692
1422.0000, -80.929
1422.1000, -82.517
1422.2000, -86.747
1422.3000, -90.511
1422.4000, -83.081
1422.5000, -82.682
1422.6000, -82.090
1422.7000, -84.093
1422.8000, -84.563
1422.9000, -81.982
1423.0000, -80.629
1423.1000, -92.727
1423.2000, -80.980
1423.3000, -84.781
1423.4000, -89.767
1423.5000, -82.162
1423.6000, -81.512
1423.7000, -79.426
1423.8000,-210.000
1423.9000, -83.484
1424.0000,-210.000
1424.1000, -81.977
1424.2000, -83.101
1424.3000, -90.257
1424.4000, -81.068
1424.5000, -90.839
1424.6000, -89.297
1424.7000, -81.257
1424.8000, -82.076
1424.9000, -83.367
1425.0000, -84.882
1425.1000, -82.085
1425.2000, -81.587
1425.3000, -83.023
1425.4000, -83.068
1425.5000, -82.421
1425.6000, -82.610
1425.7000, -81.490
1425.8000, -88.981
1425.9000, -99.172
1426.0000, -78.838
1426.1000, -84.392
1426.2000, -85.016
1426.3000, -84.255
1426.4000, -86.682
1426.5000, -80.619
1426.6000, -84.894
1426.7000, -83.988
1426.8000, -84.581
1426.9000, -84.416
1427.0000, -81.356
1427.1000, -86.135
1427.2000, -84.545
1427.3000, -83.895
1427.4000, -82.311
1427.5000, -86.000
1427.6000, -82.558
1427.7000, -87.380
1427.8000, -82.858
1427.9000, -83.643
1428.0000, -82.435
1428.1000, -89.223
1428.2000, -85.798
1428.3000, -81.042
1428.4000, -80.071
1428.5000, -86.352
1428.6000, -87.772
1428.7000, -83.226
1428.8000, -84.974
1428.9000, -82.724
1429.0000,-210.000
1429.1000, -80.907
1429.2000, -83.520
1429.3000, -81.399
1429.4000, -85.813
1429.5000, -82.493
1429.6000, -81.304
1429.7000, -82.038
1429.8000, -85.944
1429.9000, -82.812
1430.0000, -85.646
1430.1000, -83.946
1430.2000, -81.011
1430.3000, -83.547
1430.4000, -82.736
1430.5000, -82.170
1430.6000, -83.368
1430.7000, -84.243
1430.8000, -81.381
1430.9000, -80.201
1431.0000, -86.335
1431.1000,-210.000
1431.2000, -78.156
1431.3000, -89.540
1431.4000, -80.203
1431.5000, -84.972
1431.6000, -78.645
1431.7000, -82.399
1431.8000, -86.653
1431.9000, -80.717
1432.0000, -81.919
1432.1000,-210.000
1432.2000, -78.367
1432.3000, -88.020
1432.4000, -81.704
1432.5000,-210.000
1432.6000, -78.523
1432.7000, -82.192
1432.8000, -80.337
1432.9000,-210.000
1433.0000, -82.281
1433.1000, -80.936
1433.2000, -87.152
1433.3000, -82.349
1433.4000, -86.352
1433.5000, -81.414
1433.6000, -82.919
1433.7000, -83.809
1433.8000, -82.884
1433.9000, -86.381
1434.0000, -82.770
1434.1000,-210.000
1434.2000, -81.112
1434.3000, -82.347
1434.4000, -79.881
1434.5000, -83.413
1434.6000, -91.801
1434.7000, -81.659
1434.8000, -80.588
1434.9000, -82.766
1435.0000, -86.251
1435.1000, -87.473
1435.2000, -82.271
1435.3000, -80.684
1435.4000,-210.000
1435.5000, -82.453
1435.6000, -86.711
1435.7000, -80.984
1435.8000, -79.862
1435.9000, -82.864
1436.0000, -95.252
1436.1000, -82.844
1436.2000,-210.000
1436.3000, -80.806
1436.4000, -90.919
1436.5000, -81.920
1436.6000, -86.321
1436.7000, -83.687
1436.8000, -81.389
1436.9000, -86.426
1437.0000, -80.180
1437.1000,-210.000
1437.2000, -78.677
1437.3000, -86.073
1437.4000, -81.449
1437.5000, -90.893
1437.6000, -86.470
1437.7000, -82.563
1437.8000, -87.655
1437.9000, -83.807
1438.0000, -86.484
1438.1000, -80.324
1438.2000, -94.061
1438.3000, -81.238
1438.4000, -88.369
1438.5000, -82.037
1438.6000, -88.832
1438.7000, -82.467
1438.8000, -81.419
1438.9000, -88.499
1439.0000, -80.571
1439.1000, -84.486
1439.2000,-210.000
1439.3000, -78.264
1439.4000,-210.000
1439.5000,-210.000
1439.6000, -78.529
1439.7000, -82.103
1439.8000, -84.370
1439.9000, -83.012
1440.0000, -86.713
1440.1000, -83.482
1440.2000, -84.037
1440.3000, -81.663
1440.4000, -81.853
1440.5000, -83.770
1440.6000, -80.363
1440.7000, -81.975
1440.8000, -83.713
1440.9000, -87.854
1441.0000, -79.988
1441.1000, -98.533
1441.2000, -80.411
1441.3000, -84.992
1441.4000, -83.288
1441.5000, -84.469
1441.6000, -84.090
1441.7000, -86.518
1441.8000, -82.379
1441.9000, -91.828
1442.0000, -83.112
1442.1000, -84.403
1442.2000, -83.090
1442.3000, -79.404
1442.4000, -83.283
1442.5000, -81.597
1442.6000, -90.273
1442.7000, -90.204
1442.8000, -84.066
1442.9000, -79.184
1443.0000, -87.744
1443.1000, -86.339
1443.2000, -81.879
1443.3000, -79.825
1443.4000, -82.569
1443.5000, -81.213
1443.6000, -81.863
1443.7000, -85.665
1443.8000, -80.322
1443.9000, -84.107
1444.0000, -83.823
1444.1000, -81.341
1444.2000, -80.969
1444.3000, -80.069
1444.4000, -85.353
1444.5000, -83.321
1444.6000, -82.603
1444.7000, -87.251
1444.8000, -82.727
1444.9000, -83.857
1445.0000, -79.178
1445.1000, -89.353
1445.2000, -93.505
1445.3000, -81.302
1445.4000, -84.431
1445.5000, -81.166
1445.6000, -83.041
1445.7000, -83.527
1445.8000, -80.608
1445.9000,-210.000
1446.0000, -81.382
1446.1000,-210.000
1446.2000, -84.920
1446.3000, -84.434
1446.4000, -80.886
1446.5000, -84.017
1446.6000, -87.485
1446.7000, -84.669
1446.8000, -77.996
1446.9000,-210.000
1447.0000, -82.854
1447.1000, -83.725
1447.2000, -84.800
1447.3000, -84.159
1447.4000, -81.653
1447.5000,-210.000
1447.6000, -77.944
1447.7000,-210.000
1447.8000, -80.695
1447.9000, -78.165
1448.0000, -84.151
1448.1000, -80.884
1448.2000, -87.450
1448.3000, -84.693
1448.4000, -83.108
1448.5000, -80.626
1448.6000,-210.000
1448.7000, -81.893
1448.8000, -82.522
1448.9000, -81.979
1449.0000, -87.335
1449.1000, -84.562
1449.2000, -80.442
1449.3000,-210.000
1449.4000, -81.600
1449.5000, -87.959
1449.6000, -84.470
1449.7000, -83.075
1449.8000, -79.785
1449.9000, -83.256
1450.0000,-101.128
1450.1000, -80.720
1450.2000, -81.038
1450.3000,-210.000
1450.4000, -82.915
1450.5000, -81.808
1450.6000, -81.630
1450.7000, -85.444
1450.8000, -83.857
1450.9000, -86.358
1451.0000, -88.766
1451.1000, -81.207
1451.2000, -87.584
1451.3000, -81.314
1451.4000, -81.394
1451.5000, -84.642
1451.6000, -85.081
1451.7000, -83.750
1451.8000, -80.930
1451.9000,-210.000
1452.0000, -84.706
1452.1000, -82.827
1452.2000, -84.770
1452.3000, -83.648
1452.4000, -84.014
1452.5000, -84.086
1452.6000, -82.689
1452.7000, -86.317
1452.8000, -86.163
1452.9000, -84.420
1453.0000, -81.022
1453.1000, -84.825
1453.2000, -83.836
1453.3000, -81.506
1453.4000, -83.022
1453.5000, -82.545
1453.6000, -98.523
1453.7000, -80.877
1453.8000, -83.182
1453.9000, -81.479
1454.0000, -82.507
1454.1000,-210.000
1454.2000, -79.808
1454.3000, -86.444
1454.4000, -81.723
1454.5000, -82.399
1454.6000, -82.750
1454.7000, -82.487
1454.8000, -81.437
1454.9000,-210.000
1455.0000, -80.872
1455.1000, -84.343
1455.2000, -84.054
1455.3000, -82.952
1455.4000, -83.899
1455.5000, -82.590
1455.6000, -83.521
1455.7000, -84.098
1455.8000, -87.329
1455.9000, -80.834
1456.0000,-210.000
1456.1000, -84.978
1456.2000, -83.086
1456.3000, -83.792
1456.4000, -83.851
1456.5000, -79.791
1456.6000, -83.895
1456.7000, -83.277
1456.8000, -81.980
1456.9000, -83.822
1457.0000, -82.766
1457.1000, -83.131
1457.2000, -82.910
1457.3000, -88.908
1457.4000, -81.884
1457.5000, -81.392
1457.6000, -80.643
1457.7000, -89.258
1457.8000, -82.720
1457.9000, -87.674
1458.0000, -83.300
1458.1000, -81.237
1458.2000, -83.699
1458.3000, -80.832
1458.4000,-210.000
1458.5000, -80.452
1458.6000, -86.094
1458.7000, -97.789
1458.8000, -81.469
1458.9000, -82.786
1459.0000, -78.698
1459.1000, -82.401
1459.2000, -82.102
1459.3000, -86.334
1459.4000, -87.717
1459.5000, -88.940
1459.6000, -83.966
1459.7000, -82.265
1459.8000, -79.536
1459.9000, -80.847
1460.0000, -88.165
1460.1000, -83.475
1460.2000,-210.000
1460.3000, -83.191
1460.4000, -80.732
1460.5000, -85.364
1460.6000,-121.281
1460.7000, -89.373
1460.8000, -83.382
1460.9000, -87.545
1461.0000, -83.014
1461.1000, -85.209
1461.2000, -82.343
1461.3000, -84.498
1461.4000, -82.754
1461.5000, -80.062
1461.6000, -83.021
1461.7000, -84.596
1461.8000, -88.479
1461.9000, -84.237
1462.0000, -82.219
1462.1000, -85.448
1462.2000, -84.297
1462.3000, -82.554
1462.4000,-210.000
1462.5000, -83.142
1462.6000, -82.949
1462.7000, -83.749
1462.8000, -81.815
1462.9000, -82.091
1463.0000, -82.020
1463.1000, -82.964
1463.2000, -80.834
1463.3000, -88.291
1463.4000, -79.330
1463.5000, -93.618
1463.6000, -80.538
1463.7000,-210.000
1463.8000, -87.397
1463.9000, -84.882
1464.0000, -82.683
1464.1000, -83.809
1464.2000, -82.109
1464.3000, -81.600
1464.4000, -86.722
1464.5000, -81.842
1464.6000, -85.919
1464.7000, -81.708
1464.8000, -84.390
1464.9000, -82.959
1465.0000, -81.934
1465.1000, -86.146
1465.2000, -82.058
1465.3000, -86.094
1465.4000, -83.308
1465.5000, -84.796
1465.6000, -84.273
1465.7000, -84.071
1465.8000, -82.742
1465.9000, -90.072
1466.0000, -81.699
1466.1000, -82.349
1466.2000, -82.983
1466.3000, -84.054
1466.4000, -84.272
1466.5000, -84.762
1466.6000, -95.459
1466.7000, -80.259
1466.8000, -83.258
1466.9000, -83.107
1467.0000, -82.729
1467.1000, -89.438
1467.2000, -84.753
1467.3000, -82.239
1467.4000, -83.090
1467.5000, -81.469
1467.6000, -82.467
1467.7000, -85.279
1467.8000, -85.380
1467.9000, -84.482
1468.0000, -80.093
1468.1000,-210.000
1468.2000, -82.344
1468.3000, -89.429
1468.4000, -81.406
1468.5000, -83.909
1468.6000, -83.235
1468.7000, -83.056
1468.8000, -90.815
1468.9000, -82.356
1469.0000, -82.290
1469.1000, -84.389
1469.2000, -81.860
1469.3000, -90.141
1469.4000, -79.080
1469.5000,-210.000
1469.6000, -83.156
1469.7000, -82.318
1469.8000, -83.117
1469.9000, -82.992
1470.0000, -81.739
1470.1000, -99.111
1470.2000, -79.784
1470.3000, -84.850
1470.4000, -87.092
1470.5000, -86.267
1470.6000, -80.221
1470.7000, -82.611
1470.8000, -85.076
1470.9000, -85.715
1471.0000, -82.890
1471.1000, -81.902
1471.2000, -83.526
1471.3000, -81.834
1471.4000, -90.921
1471.5000, -81.383
1471.6000, -82.180
1471.7000, -83.587
1471.8000, -80.584
1471.9000, -86.842
1472.0000, -85.473
1472.1000, -79.812
1472.2000, -84.551
1472.3000, -88.941
1472.4000, -84.215
1472.5000, -81.576
1472.6000, -84.559
1472.7000, -84.972
1472.8000, -81.647
1472.9000, -83.143
1473.0000, -83.979
1473.1000, -83.820
1473.2000, -82.146
1473.3000, -81.152
1473.4000, -86.605
1473.5000, -85.020
1473.6000, -84.789
1473.7000, -81.808
1473.8000, -83.529
1473.9000, -81.116
1474.0000, -83.859
1474.1000, -85.351
1474.2000, -81.300
1474.3000, -84.157
1474.4000, -87.894
1474.5000, -84.934
1474.6000, -83.075
1474.7000, -84.145
1474.8000, -84.961
1474.9000, -81.852
1475.0000, -86.941
1475.1000, -82.943
1475.2000, -82.927
1475.3000, -84.675
1475.4000, -81.511
1475.5000, -83.655
1475.6000, -88.914
1475.7000, -86.512
1475.8000, -81.810
1475.9000, -81.143
1476.0000, -85.295
1476.1000, -84.216
1476.2000, -82.247
1476.3000, -83.145
1476.4000, -82.982
1476.5000, -83.415
1476.6000, -86.188
1476.7000, -82.399
1476.8000, -84.722
1476.9000, -89.845
1477.0000, -85.053
1477.1000, -78.305
1477.2000, -84.742
1477.3000,-210.000
1477.4000, -81.818
1477.5000, -80.221
1477.6000, -82.095
1477.7000, -83.656
1477.8000, -87.661
1477.9000, -80.832
1478.0000, -87.737
1478.1000, -81.796
1478.2000, -82.798
1478.3000, -90.189
1478.4000, -83.923
1478.5000, -80.244
1478.6000,-210.000
1478.7000, -80.020
1478.8000,-210.000
1478.9000, -84.481
1479.0000, -82.085
1479.1000, -81.199
1479.2000, -83.862
1479.3000, -88.434
1479.4000, -89.746
1479.5000, -83.824
1479.6000, -82.745
1479.7000, -81.827
1479.8000, -82.505
1479.9000, -81.656
1480.0000, -84.171
1480.1000, -81.536
1480.2000, -81.499
1480.3000,-210.000
1480.4000, -79.761
1480.5000, -80.600
1480.6000, -84.339
1480.7000, -80.671
1480.8000, -86.014
1480.9000, -83.891
1481.0000, -81.155
1481.1000, -84.508
1481.2000,-210.000
1481.3000, -81.819
1481.4000, -79.932
1481.5000, -85.707
1481.6000, -87.382
1481.7000, -86.555
1481.8000, -82.938
1481.9000, -85.405
1482.0000, -83.468
1482.1000, -80.989
1482.2000, -82.373
1482.3000, -86.828
1482.4000, -85.698
1482.5000, -82.298
1482.6000, -82.892
1482.7000, -81.035
1482.8000, -84.113
1482.9000, -88.379
1483.0000, -82.877
1483.1000, -82.603
1483.2000, -84.256
1483.3000, -83.103
1483.4000, -82.511
1483.5000, -81.626
1483.6000, -85.368
1483.7000, -82.466
1483.8000, -82.499
1483.9000, -86.317
1484.0000, -82.497
1484.1000, -80.186
1484.2000,-210.000
1484.3000, -81.235
1484.4000, -82.433
1484.5000, -85.240
1484.6000, -81.531
1484.7000, -87.153
1484.8000, -81.776
1484.9000, -83.231
1485.0000, -90.609
1485.1000, -81.085
1485.2000,-210.000
1485.3000, -87.566
1485.4000, -82.502
1485.5000, -83.444
1485.6000, -82.047
1485.7000, -91.068
1485.8000, -81.190
1485.9000, -83.449
1486.0000, -81.678
1486.1000, -83.169
1486.2000, -91.347
1486.3000, -82.763
1486.4000, -82.534
1486.5000, -82.536
1486.6000, -81.870
1486.7000, -85.103
1486.8000, -82.272
1486.9000, -87.946
1487.0000, -81.814
1487.1000, -82.643
1487.2000, -84.545
1487.3000, -86.149
1487.4000, -82.704
1487.5000, -87.307
1487.6000, -81.906
1487.7000, -80.858
1487.8000, -87.847
1487.9000, -86.093
1488.0000, -81.235
1488.1000, -82.098
1488.2000, -85.596
1488.3000, -84.307
1488.4000, -82.735
1488.5000, -83.132
1488.6000, -83.659
1488.7000, -87.210
1488.8000, -83.531
1488.9000, -84.206
1489.0000, -84.023
1489.1000, -81.846
1489.2000, -82.376
1489.3000, -81.579
1489.4000, -84.756
1489.5000, -82.069
1489.6000, -84.967
1489.7000, -82.540
1489.8000, -82.200
1489.9000, -81.524
1490.0000, -83.374
1490.1000, -92.132
1490.2000, -87.317
1490.3000, -82.736
1490.4000, -81.125
1490.5000, -81.857
1490.6000, -80.773
1490.7000, -83.925
1490.8000, -84.736
1490.9000, -84.012
1491.0000, -85.373
1491.1000, -81.844
1491.2000, -84.380
1491.3000, -82.402
1491.4000, -89.822
1491.5000, -85.254
1491.6000, -82.037
1491.7000, -82.445
1491.8000, -81.425
1491.9000, -82.790
1492.0000, -86.675
1492.1000, -80.682
1492.2000, -83.184
1492.3000, -82.960
1492.4000, -84.970
1492.5000, -84.352
1492.6000, -87.074
1492.7000, -81.812
1492.8000, -82.038
1492.9000, -90.874
1493.0000, -82.509
1493.1000, -82.285
1493.2000, -82.419
1493.3000, -85.578
1493.4000, -81.287
1493.5000, -84.262
1493.6000, -83.896
1493.7000, -94.521
1493.8000, -83.120
1493.9000, -82.095
1494.0000, -87.132
1494.1000, -80.607
1494.2000, -83.903
1494.3000,-210.000
1494.4000, -81.001
1494.5000, -84.067
1494.6000, -83.482
1494.7000, -83.011
1494.8000, -82.229
1494.9000, -82.724
1495.0000, -86.180
1495.1000, -84.237
1495.2000, -83.859
1495.3000, -81.188
1495.4000, -80.842
1495.5000, -86.151
1495.6000, -85.085
1495.7000, -84.350
1495.8000, -82.633
1495.9000, -87.543
1496.0000, -82.706
1496.1000, -81.837
1496.2000, -80.762
1496.3000, -83.360
1496.4000, -81.961
1496.5000, -85.480
1496.6000, -85.320
1496.7000, -81.722
1496.8000, -81.528
1496.9000, -86.326
1497.0000, -80.973
1497.1000, -81.449
1497.2000, -84.697
1497.3000, -83.094
1497.4000, -84.031
1497.5000, -83.321
1497.6000, -82.959
1497.7000, -81.553
1497.8000, -85.534
1497.9000, -82.462
1498.0000, -83.044
1498.1000, -83.519
1498.2000, -81.588
1498.3000, -83.070
1498.4000, -82.971
1498.5000, -82.407
1498.6000, -83.572
1498.7000, -81.607
1498.8000, -82.525
1498.9000, -83.260
1499.0000, -82.336
1499.1000, -82.301
1499.2000, -83.316
1499.3000, -80.967
1499.4000, -84.185
1499.5000, -80.795
1499.6000, -81.837
1499.7000,-210.000
1499.8000, -80.788
1499.9000, -83.249
1500.0000, -80.723
1500.1000, -81.559
1500.2000, -84.402
1500.3000, -81.901
1500.4000, -83.284
1500.5000, -86.430
1500.6000, -83.399
1500.7000, -82.313
1500.8000, -84.046
1500.9000, -82.278
1501.0000, -82.245
1501.1000, -84.669
1501.2000, -80.078
1501.3000, -86.097
1501.4000, -84.038
1501.5000, -80.441
1501.6000, -85.058
1501.7000, -85.544
1501.8000, -84.612
1501.9000, -82.398
1502.0000, -83.921
1502.1000, -82.735
1502.2000, -83.227
1502.3000, -83.026
1502.4000, -82.831
1502.5000, -81.197
1502.6000, -84.159
1502.7000, -82.643
1502.8000, -81.081
1502.9000, -86.972
1503.0000, -83.671
1503.1000, -81.886
1503.2000, -82.018
1503.3000, -83.307
1503.4000, -79.837
1503.5000,-210.000
1503.6000, -80.768
1503.7000, -81.246
1503.8000,-210.000
1503.9000, -82.076
1504.0000, -80.826
1504.1000,-210.000
1504.2000, -79.612
1504.3000, -82.088
1504.4000, -85.588
1504.5000, -88.556
1504.6000, -80.273
1504.7000, -82.641
1504.8000, -87.620
1504.9000, -86.120
1505.0000, -81.790
1505.1000, -82.727
1505.2000, -83.471
1505.3000, -83.478
1505.4000, -83.664
1505.5000, -81.904
1505.6000, -82.793
1505.7000, -82.248
1505.8000, -85.034
1505.9000, -84.279
1506.0000, -82.675
1506.1000, -80.727
1506.2000, -84.093
1506.3000, -82.766
1506.4000, -86.022
1506.5000, -81.623
1506.6000, -82.920
1506.7000, -83.185
1506.8000, -82.690
1506.9000, -81.319
1507.0000, -87.047
1507.1000, -83.212
1507.2000, -81.123
1507.3000, -84.115
1507.4000, -82.069
1507.5000, -82.104
1507.6000, -85.952
1507.7000, -88.273
1507.8000, -92.575
1507.9000, -79.370
1508.0000, -84.270
1508.1000, -80.976
1508.2000, -85.699
1508.3000, -85.574
1508.4000, -82.486
1508.5000, -84.330
1508.6000, -80.601
1508.7000, -81.435
1508.8000, -88.054
1508.9000, -79.363
1509.0000, -87.759
1509.1000, -83.459
1509.2000, -84.944
1509.3000, -79.614
1509.4000, -81.616
1509.5000, -94.335
1509.6000, -84.721
1509.7000, -82.656
1509.8000, -83.599
1509.9000, -80.165
1510.0000, -89.748
1510.1000, -84.057
1510.2000, -82.660
1510.3000, -84.410
1510.4000, -81.963
1510.5000, -81.394
1510.6000, -82.520
1510.7000, -84.667
1510.8000, -83.970
1510.9000, -83.744
1511.0000, -82.727
1511.1000, -84.662
1511.2000, -83.385
1511.3000, -82.606
1511.4000, -81.852
1511.5000, -81.974
1511.6000, -82.052
1511.7000, -81.106
1511.8000, -87.568
1511.9000, -80.611
1512.0000, -81.583
1512.1000, -87.958
1512.2000, -85.496
1512.3000, -81.976
1512.4000, -82.175
1512.5000, -84.850
1512.6000, -83.186
1512.7000, -81.939
1512.8000, -83.244
1512.9000, -83.961
1513.0000, -82.054
1513.1000, -83.526
1513.2000, -80.760
1513.3000, -82.116
1513.4000, -84.276
1513.5000, -84.286
1513.6000, -81.681
1513.7000, -82.333
1513.8000, -81.770
1513.9000, -83.198
1514.0000, -82.276
1514.1000, -85.675
1514.2000, -82.922
1514.3000, -81.507
1514.4000, -81.443
1514.5000, -84.094
1514.6000, -81.896
1514.7000, -84.333
1514.8000, -80.506
1514.9000, -83.219
1515.0000, -85.893
1515.1000, -82.279
1515.2000, -81.692
1515.3000, -82.446
1515.4000, -83.817
1515.5000, -85.354
1515.6000, -80.900
1515.7000, -83.675
1515.8000, -81.710
1515.9000, -81.123
1516.0000, -82.796
1516.1000, -81.539
1516.2000, -81.633
1516.3000, -86.019
1516.4000, -82.895
1516.5000, -80.035
1516.6000, -84.134
1516.7000, -82.465
1516.8000, -81.529
1516.9000, -99.201
1517.0000, -86.881
1517.1000, -78.786
1517.2000, -79.440
1517.3000,-101.989
1517.4000, -83.146
1517.5000, -80.703
1517.6000, -82.468
1517.7000, -81.879
1517.8000, -85.346
1517.9000, -81.680
1518.0000, -82.145
1518.1000, -81.832
1518.2000, -84.763
1518.3000, -82.728
1518.4000, -80.434
1518.5000, -83.683
1518.6000,-210.000
1518.7000, -80.608
1518.8000, -85.107
1518.9000, -82.111
1519.0000, -81.169
1519.1000, -87.443
1519.2000, -84.848
1519.3000, -79.413
1519.4000,-210.000
1519.5000, -82.924
1519.6000, -81.257
1519.7000, -85.482
1519.8000, -83.843
1519.9000, -79.180
1520.0000, -82.188
1520.1000, -80.381
1520.2000, -86.912
1520.3000, -86.536
1520.4000, -82.435
1520.5000, -81.597
1520.6000, -80.659
1520.7000, -80.146
1520.8000, -81.056
1520.9000,-210.000
1521.0000, -78.882
1521.1000, -84.336
1521.2000, -86.053
1521.3000, -80.438
1521.4000, -81.390
1521.5000, -81.709
1521.6000, -84.906
1521.7000,-210.000
1521.8000, -81.246
1521.9000, -81.690
1522.0000, -81.435
1522.1000, -80.125
1522.2000, -87.679
1522.3000, -79.912
1522.4000, -83.406
1522.5000, -82.506
1522.6000, -83.504
1522.7000, -83.174
1522.8000, -80.531
1522.9000, -88.033
1523.0000, -80.955
1523.1000, -84.868
1523.2000, -82.794
1523.3000, -84.697
1523.4000, -81.655
1523.5000, -80.149
1523.6000,-210.000
1523.7000, -81.780
1523.8000, -82.220
1523.9000, -80.730
1524.0000, -82.140
1524.1000, -87.894
1524.2000, -82.338
1524.3000, -84.043
1524.4000, -80.720
1524.5000, -82.430
1524.6000, -81.779
1524.7000, -85.441
1524.8000, -82.464
1524.9000, -82.483
1525.0000, -82.420
1525.1000, -82.732
1525.2000, -83.962
1525.3000, -81.792
1525.4000, -84.652
1525.5000, -82.984
1525.6000, -81.812
1525.7000, -81.886
1525.8000, -85.166
1525.9000, -79.082
1526.0000, -83.801
1526.1000, -82.832
1526.2000, -89.216
1526.3000, -80.490
1526.4000, -82.315
1526.5000, -81.863
1526.6000, -81.912
1526.7000, -81.667
1526.8000, -85.717
1526.9000, -82.684
1527.0000, -82.509
1527.1000, -81.194
1527.2000, -87.460
1527.3000, -77.648
1527.4000, -84.707
1527.5000, -90.384
1527.6000, -81.332
1527.7000, -80.690
1527.8000, -79.667
1527.9000, -92.822
1528.0000, -79.715
1528.1000, -91.940
1528.2000, -82.836
1528.3000, -83.848
1528.4000, -78.807
1528.5000, -84.501
1528.6000, -89.585
1528.7000, -81.082
1528.8000, -86.104
1528.9000, -78.810
1529.0000, -84.080
1529.1000, -82.763
1529.2000, -83.614
1529.3000, -82.959
1529.4000, -81.228
1529.5000, -80.898
1529.6000, -83.122
1529.7000, -83.368
1529.8000, -79.592
1529.9000, -83.464
1530.0000, -89.466
1530.1000, -90.397
1530.2000, -81.651
1530.3000, -83.202
1530.4000, -82.718
1530.5000, -82.135
1530.6000, -80.903
1530.7000, -84.893
1530.8000, -83.957
1530.9000, -81.723
1531.0000, -82.606
1531.1000, -83.010
1531.2000, -82.116
1531.3000, -80.653
1531.4000,-210.000
1531.5000, -79.474
1531.6000, -86.227
1531.7000, -79.641
1531.8000,-210.000
1531.9000, -82.377
1532.0000, -81.328
1532.1000, -78.350
1532.2000, -85.332
1532.3000, -82.861
1532.4000, -89.678
1532.5000, -79.511
1532.6000, -86.620
1532.7000, -83.379
1532.8000, -79.645
1532.9000, -81.805
1533.0000, -83.981
1533.1000, -81.673
1533.2000, -81.269
1533.3000, -81.961
1533.4000,-210.000
1533.5000, -82.059
1533.6000, -80.919
1533.7000, -82.012
1533.8000, -83.365
1533.9000, -81.012
1534.0000,-101.352
1534.1000, -81.858
1534.2000, -83.312
1534.3000, -85.161
1534.4000, -81.750
1534.5000,-210.000
1534.6000, -77.449
1534.7000, -87.442
1534.8000, -81.244
1534.9000,-210.000
1535.0000, -79.412
1535.1000, -84.369
1535.2000, -82.265
1535.3000, -81.902
1535.4000, -82.021
1535.5000, -80.562
1535.6000, -81.284
1535.7000, -83.010
1535.8000, -81.654
1535.9000, -83.736
1536.0000, -83.502
1536.1000, -80.565
1536.2000, -81.466
1536.3000, -83.156
1536.4000, -82.955
1536.5000, -81.453
1536.6000, -84.722
1536.7000, -80.901
1536.8000, -80.442
1536.9000, -81.467
1537.0000, -82.268
1537.1000, -82.526
1537.2000, -81.702
1537.3000, -80.349
1537.4000, -83.280
1537.5000, -84.007
1537.6000, -83.097
1537.7000, -81.229
1537.8000, -80.516
1537.9000, -81.824
1538.0000, -84.496
1538.1000, -81.660
1538.2000, -81.612
1538.3000, -80.458
1538.4000, -84.006
1538.5000, -92.191
1538.6000, -79.392
1538.7000, -86.893
1538.8000, -84.773
1538.9000, -81.487
1539.0000, -84.776
1539.1000, -83.634
1539.2000, -81.005
1539.3000, -82.606
1539.4000, -84.409
1539.5000, -82.859
1539.6000, -83.053
1539.7000, -81.744
1539.8000, -82.694
1539.9000, -82.486
1540.0000, -85.315
1540.1000, -85.840
1540.2000, -79.474
1540.3000, -82.388
1540.4000, -83.258
1540.5000, -83.870
1540.6000, -80.939
1540.7000, -86.748
1540.8000, -83.283
1540.9000, -79.795
1541.0000, -85.789
1541.1000, -80.835
1541.2000, -83.735
1541.3000, -79.765
1541.4000, -82.031
1541.5000, -81.780
1541.6000, -81.522
1541.7000, -85.401
1541.8000, -83.938
1541.9000, -81.032
1542.0000, -80.775
1542.1000, -81.579
1542.2000, -81.424
1542.3000, -81.759
1542.4000, -84.079
1542.5000, -80.057
1542.6000, -81.657
1542.7000, -82.880
1542.8000, -83.205
1542.9000, -83.875
1543.0000, -84.089
1543.1000, -80.717
1543.2000, -82.763
1543.3000, -84.123
1543.4000, -82.945
1543.5000, -81.504
1543.6000, -83.075
1543.7000, -82.082
1543.8000, -84.825
1543.9000, -86.829
1544.0000, -81.399
1544.1000, -82.255
1544.2000, -85.127
1544.3000, -80.084
1544.4000, -81.243
1544.5000, -81.841
1544.6000, -81.465
1544.7000, -81.570
1544.8000, -85.061
1544.9000, -82.255
1545.0000, -82.019
1545.1000, -79.515
1545.2000, -78.727
1545.3000, -86.092
1545.4000, -85.978
1545.5000, -81.466
1545.6000, -81.574
1545.7000, -83.031
1545.8000, -80.914
1545.9000, -81.027
1546.0000, -81.566
1546.1000, -83.250
1546.2000, -84.141
1546.3000, -81.944
1546.4000, -82.738
1546.5000, -80.427
1546.6000, -82.100
1546.7000, -82.048
1546.8000, -80.658
1546.9000, -84.204
1547.0000, -82.631
1547.1000, -80.457
1547.2000, -82.649
1547.3000, -85.276
1547.4000, -80.410
1547.5000, -81.200
1547.6000, -82.090
1547.7000, -83.142
1547.8000, -82.043
1547.9000, -81.932
1548.0000, -82.676
1548.1000, -83.792
1548.2000, -83.419
1548.3000, -81.658
1548.4000, -83.508
1548.5000, -82.612
1548.6000, -80.991
1548.7000, -84.124
1548.8000, -81.349
1548.9000, -82.407
1549.0000, -82.367
1549.1000, -82.589
1549.2000, -80.916
1549.3000, -82.576
1549.4000, -82.829
1549.5000, -82.738
1549.6000, -80.340
1549.7000, -90.107
1549.8000, -81.349
1549.9000, -81.315
1550.0000, -81.303
1550.1000, -88.373
1550.2000, -80.132
1550.3000, -81.654
1550.4000, -81.854
1550.5000, -83.738
1550.6000, -83.508
1550.7000, -79.960
1550.8000, -97.917
1550.9000, -81.490
1551.0000, -81.471
1551.1000, -84.425
1551.2000, -80.515
1551.3000, -98.880
1551.4000, -81.300
1551.5000, -83.279
1551.6000, -85.625
1551.7000, -83.063
1551.8000, -81.493
1551.9000, -83.476
1552.0000, -81.903
1552.1000, -80.932
1552.2000, -86.273
1552.3000, -84.962
1552.4000, -82.782
1552.5000, -81.796
1552.6000, -83.919
1552.7000, -83.652
1552.8000, -84.401
1552.9000, -81.377
1553.0000, -82.330
1553.1000, -80.582
1553.2000, -84.874
1553.3000, -81.686
1553.4000, -84.647
1553.5000, -82.668
1553.6000, -80.522
1553.7000, -83.015
1553.8000, -82.437
1553.9000, -82.155
1554.0000, -81.561
1554.1000, -81.596
1554.2000, -83.690
1554.3000, -83.428
1554.4000, -81.288
1554.5000, -80.348
1554.6000, -79.147
1554.7000, -88.889
1554.8000, -83.263
1554.9000, -80.641
1555.0000, -83.834
1555.1000, -86.136
1555.2000, -82.466
1555.3000, -81.638
1555.4000, -85.781
1555.5000, -83.090
1555.6000, -79.683
1555.7000, -82.385
1555.8000, -82.773
1555.9000, -81.414
1556.0000, -80.765
1556.1000, -81.853
1556.2000, -81.004
1556.3000, -81.405
1556.4000, -81.023
1556.5000, -83.127
1556.6000, -81.865
1556.7000, -88.026
1556.8000, -81.566
1556.9000, -83.292
1557.0000, -82.449
1557.1000, -83.942
1557.2000, -81.783
1557.3000, -82.062
1557.4000, -81.776
1557.5000, -81.429
1557.6000, -80.063
1557.7000,-210.000
1557.8000, -80.577
1557.9000, -84.474
1558.0000, -85.174
1558.1000, -81.552
1558.2000, -84.274
1558.3000, -82.138
1558.4000, -83.906
1558.5000, -80.738
1558.6000, -81.019
1558.7000, -84.386
1558.8000, -84.199
1558.9000, -80.475
1559.0000, -81.228
1559.1000,-210.000
1559.2000, -80.953
1559.3000, -81.133
1559.4000, -85.338
1559.5000, -81.819
1559.6000, -81.634
1559.7000, -82.775
1559.8000, -83.188
1559.9000, -80.529
1560.0000, -84.759
1560.1000, -81.068
1560.2000, -80.815
1560.3000, -81.941
1560.4000, -84.691
1560.5000, -83.942
1560.6000, -83.152
1560.7000, -81.287
1560.8000, -83.513
1560.9000, -83.240
1561.0000, -81.630
1561.1000, -81.429
1561.2000, -79.904
1561.3000,-210.000
1561.4000, -80.450
1561.5000, -82.031
1561.6000, -79.245
1561.7000, -83.516
1561.8000, -81.415
1561.9000, -83.565
1562.0000, -81.064
1562.1000, -82.729
1562.2000, -82.364
1562.3000, -85.223
1562.4000, -84.966
1562.5000, -90.766
1562.6000, -80.113
1562.7000, -81.754
1562.8000, -80.558
1562.9000, -82.798
1563.0000, -79.432
1563.1000,-210.000
1563.2000, -84.286
1563.3000, -83.218
1563.4000, -79.680
1563.5000, -81.813
1563.6000, -82.826
1563.7000, -80.706
1563.8000, -84.275
1563.9000, -82.768
1564.0000, -88.145
1564.1000, -80.342
1564.2000, -82.687
1564.3000, -81.569
1564.4000, -82.783
1564.5000, -81.301
1564.6000, -87.609
1564.7000, -80.251
1564.8000, -82.853
1564.9000, -82.297
1565.0000, -80.571
1565.1000, -80.880
1565.2000, -85.840
1565.3000, -83.406
1565.4000, -81.414
1565.5000, -80.034
1565.6000, -80.060
1565.7000, -87.294
1565.8000, -89.122
1565.9000, -82.160
1566.0000, -79.913
1566.1000, -83.254
1566.2000, -85.401
1566.3000, -81.107
1566.4000, -82.251
1566.5000, -82.622
1566.6000, -81.388
1566.7000, -85.598
1566.8000, -81.698
1566.9000, -82.681
1567.0000, -82.354
1567.1000, -81.237
1567.2000, -82.620
1567.3000, -81.865
1567.4000, -81.784
1567.5000, -81.893
1567.6000, -83.802
1567.7000, -81.079
1567.8000, -81.154
1567.9000, -81.562
1568.0000, -82.644
1568.1000, -79.629
1568.2000, -84.942
1568.3000, -83.562
1568.4000, -83.990
1568.5000, -82.378
1568.6000, -81.550
1568.7000, -85.790
1568.8000, -81.914
1568.9000, -82.887
1569.0000, -83.011
1569.1000, -84.743
1569.2000, -80.028
1569.3000, -82.264
1569.4000, -84.318
1569.5000, -82.049
1569.6000, -80.931
1569.7000, -82.679
1569.8000, -81.706
1569.9000, -79.772
1570.0000, -83.123
1570.1000, -81.413
1570.2000, -82.041
1570.3000, -82.635
1570.4000, -79.990
1570.5000, -84.905
1570.6000, -81.688
1570.7000, -82.200
1570.8000, -82.242
1570.9000, -81.204
1571.0000, -83.855
1571.1000, -81.876
1571.2000, -81.425
1571.3000, -82.073
1571.4000, -82.459
1571.5000, -82.971
1571.6000, -81.614
1571.7000, -83.684
1571.8000, -84.099
1571.9000, -80.711
1572.0000, -80.742
1572.1000, -83.645
1572.2000, -81.505
1572.3000, -80.664
1572.4000, -87.324
1572.5000, -88.041
1572.6000, -81.194
1572.7000, -80.595
1572.8000, -87.184
1572.9000, -79.546
1573.0000, -81.472
1573.1000, -91.879
1573.2000, -85.403
1573.3000, -78.912
1573.4000, -81.786
1573.5000,-210.000
1573.6000, -81.071
1573.7000, -79.915
1573.8000, -82.760
1573.9000, -80.417
1574.0000, -81.358
1574.1000, -84.234
1574.2000, -81.285
1574.3000, -81.289
1574.4000, -82.823
1574.5000, -81.672
1574.6000, -79.577
1574.7000, -94.306
1574.8000, -81.718
1574.9000, -80.902
1575.0000, -83.070
1575.1000, -80.208
1575.2000, -80.394
1575.3000, -84.884
1575.4000, -80.014
1575.5000, -80.811
1575.6000, -79.345
1575.7000,-210.000
1575.8000, -79.041
1575.9000, -79.858
1576.0000,-210.000
1576.1000, -79.727
1576.2000, -82.692
1576.3000, -82.654
1576.4000, -81.235
1576.5000, -83.300
1576.6000, -82.708
1576.7000, -80.010
1576.8000, -80.416
1576.9000, -88.895
1577.0000, -79.924
1577.1000, -88.170
1577.2000, -82.741
1577.3000, -80.406
1577.4000, -82.989
1577.5000, -83.004
1577.6000, -81.238
1577.7000, -87.074
1577.8000, -82.797
1577.9000, -82.160
1578.0000, -81.708
1578.1000, -84.761
1578.2000, -80.036
1578.3000, -84.125
1578.4000,-210.000
1578.5000, -78.522
1578.6000,-210.000
1578.7000, -79.645
1578.8000,-210.000
1578.9000, -77.208
1579.0000,-210.000
1579.1000, -83.306
1579.2000, -79.637
1579.3000,-210.000
1579.4000, -79.892
1579.5000, -78.894
1579.6000, -88.270
1579.7000, -83.744
1579.8000, -80.525
1579.9000, -80.983
1580.0000, -83.441
1580.1000, -82.207
1580.2000, -80.144
1580.3000, -86.440
1580.4000, -82.213
1580.5000, -83.046
1580.6000, -81.242
1580.7000, -80.511
1580.8000, -82.333
1580.9000, -81.146
1581.0000,-210.000
1581.1000, -79.233
1581.2000, -79.627
1581.3000, -81.174
1581.4000, -80.235
1581.5000,-210.000
1581.6000, -78.646
1581.7000, -82.083
1581.8000, -92.334
1581.9000, -82.081
1582.0000, -80.161
1582.1000, -85.037
1582.2000, -81.355
1582.3000, -79.521
1582.4000, -97.416
1582.5000, -80.457
1582.6000, -81.587
1582.7000, -79.580
1582.8000, -87.090
1582.9000, -80.408
1583.0000, -81.729
1583.1000, -79.487
1583.2000, -89.456
1583.3000, -89.032
1583.4000, -78.521
1583.5000, -84.786
1583.6000, -80.576
1583.7000, -81.653
1583.8000, -80.238
1583.9000, -80.622
1584.0000, -82.982
1584.1000, -80.176
1584.2000, -86.103
1584.3000, -81.399
1584.4000, -84.032
1584.5000, -82.432
1584.6000, -84.374
1584.7000, -79.466
1584.8000,-210.000
1584.9000, -83.257
1585.0000, -77.586
1585.1000, -85.177
1585.2000, -89.566
1585.3000, -79.607
1585.4000, -80.888
1585.5000, -83.446
1585.6000, -86.629
1585.7000, -81.516
1585.8000, -85.891
1585.9000, -92.229
1586.0000, -80.511
1586.1000, -83.163
1586.2000, -79.521
1586.3000, -81.018
1586.4000, -80.435
1586.5000, -79.459
1586.6000,-210.000
1586.7000, -83.092
1586.8000, -79.274
1586.9000, -84.773
1587.0000, -85.690
1587.1000, -85.151
1587.2000, -81.460
1587.3000, -80.642
1587.4000, -90.316
1587.5000, -86.177
1587.6000, -81.942
1587.7000, -83.932
1587.8000, -81.119
1587.9000, -84.290
1588.0000, -85.731
1588.1000, -81.158
1588.2000, -83.920
1588.3000, -82.946
1588.4000, -82.564
1588.5000, -80.779
1588.6000, -83.140
1588.7000, -90.984
1588.8000, -83.733
1588.9000, -83.610
1589.0000, -80.253
1589.1000, -88.406
1589.2000, -82.282
1589.3000, -84.218
1589.4000,-210.000
1589.5000, -80.088
1589.6000, -81.250
1589.7000, -83.039
1589.8000, -81.608
1589.9000, -81.436
1590.0000, -81.238
1590.1000, -82.859
1590.2000, -82.982
1590.3000, -82.197
1590.4000, -80.978
1590.5000, -81.575
1590.6000, -81.499
1590.7000, -82.245
1590.8000, -81.248
1590.9000, -87.884
1591.0000, -81.289
1591.1000, -83.438
1591.2000, -82.758
1591.3000, -83.248
1591.4000, -80.232
1591.5000, -81.093
1591.6000, -81.283
1591.7000, -81.979
1591.8000, -83.174
1591.9000, -83.535
1592.0000, -81.312
1592.1000, -81.909
1592.2000, -81.251
1592.3000, -81.416
1592.4000, -86.026
1592.5000, -81.970
1592.6000, -81.054
1592.7000, -80.361
1592.8000, -88.660
1592.9000, -81.460
1593.0000, -79.969
1593.1000, -89.028
1593.2000,-210.000
1593.3000, -81.125
1593.4000, -80.474
1593.5000, -82.150
1593.6000, -85.165
1593.7000, -79.442
1593.8000, -95.837
1593.9000, -82.140
1594.0000, -84.791
1594.1000, -80.519
1594.2000, -83.343
1594.3000, -86.253
1594.4000, -81.286
1594.5000, -80.001
1594.6000, -82.633
1594.7000, -82.862
1594.8000, -81.404
1594.9000, -83.607
1595.0000, -81.502
1595.1000, -85.522
1595.2000, -91.694
1595.3000, -81.356
1595.4000, -80.717
1595.5000, -83.913
1595.6000, -81.324
1595.7000, -78.501
1595.8000, -84.091
1595.9000, -91.636
1596.0000, -82.703
1596.1000, -81.227
1596.2000, -83.931
1596.3000, -80.887
1596.4000, -82.017
1596.5000, -81.862
1596.6000, -84.786
1596.7000, -79.333
1596.8000, -82.949
1596.9000, -84.100
1597.0000, -83.066
1597.1000, -83.788
1597.2000, -82.769
1597.3000, -82.215
1597.4000, -81.859
1597.5000, -80.998
1597.6000, -81.268
1597.7000, -84.207
1597.8000, -83.059
1597.9000, -81.940
1598.0000, -83.301
1598.1000, -81.917
1598.2000, -82.539
1598.3000, -82.284
1598.4000, -79.575
1598.5000,-210.000
1598.6000, -79.403
1598.7000, -81.680
1598.8000, -81.871
1598.9000, -81.371
1599.0000,-210.000
1599.1000, -79.072
1599.2000,-210.000
1599.3000, -78.762
1599.4000, -83.914
1599.5000, -83.937
1599.6000, -82.909
1599.7000, -81.504
1599.8000, -80.440
1599.9000, -82.604
1600.0000,-210.000
1600.1000, -81.665
1600.2000, -81.300
1600.3000, -80.835
1600.4000, -79.183
1600.5000, -81.055
1600.6000, -87.657
1600.7000,-210.000
1600.8000, -80.645
1600.9000, -81.309
1601.0000, -80.642
1601.1000, -80.893
1601.2000, -82.524
1601.3000, -82.445
1601.4000, -84.600
1601.5000, -79.922
1601.6000, -83.726
1601.7000, -83.101
1601.8000, -83.090
1601.9000, -83.038
1602.0000, -80.422
1602.1000, -85.096
1602.2000, -82.781
1602.3000, -83.992
1602.4000, -81.456
1602.5000, -86.136
1602.6000, -80.962
1602.7000, -85.902
1602.8000, -81.912
1602.9000, -80.344
1603.0000, -83.189
1603.1000, -81.928
1603.2000, -82.627
1603.3000, -79.429
1603.4000, -83.143
1603.5000, -85.432
1603.6000, -80.799
1603.7000, -82.918
1603.8000, -79.523
1603.9000, -84.016
1604.0000, -82.248
1604.1000, -81.389
1604.2000, -80.341
1604.3000, -81.428
1604.4000, -83.086
1604.5000, -90.853
1604.6000, -80.474
1604.7000, -82.699
1604.8000, -80.231
1604.9000, -80.271
1605.0000,-210.000
1605.1000, -78.488
1605.2000, -80.204
1605.3000, -83.133
1605.4000, -82.550
1605.5000, -80.422
1605.6000, -84.700
1605.7000, -80.973
1605.8000, -82.356
1605.9000, -80.192
1606.0000,-210.000
1606.1000, -80.456
1606.2000, -81.899
1606.3000, -81.974
1606.4000, -85.524
1606.5000, -78.658
1606.6000,-210.000
1606.7000, -81.907
1606.8000, -80.458
1606.9000, -78.312
1607.0000, -87.413
1607.1000, -82.875
1607.2000, -83.385
1607.3000, -83.399
1607.4000, -82.991
1607.5000, -80.821
1607.6000, -84.224
1607.7000, -81.476
1607.8000, -81.152
1607.9000, -83.565
1608.0000, -85.575
1608.1000, -79.550
1608.2000, -83.561
1608.3000, -83.007
1608.4000, -83.738
1608.5000, -80.692
1608.6000, -83.425
1608.7000, -87.743
1608.8000, -81.996
1608.9000, -85.800
1609.0000, -83.956
1609.1000, -81.254
1609.2000, -91.920
1609.3000, -79.962
1609.4000, -81.715
1609.5000, -85.108
1609.6000, -80.200
1609.7000, -83.039
1609.8000, -81.791
1609.9000, -83.571
1610.0000, -82.343
1610.1000, -83.150
1610.2000, -83.081
1610.3000, -81.265
1610.4000, -86.515
1610.5000, -80.661
1610.6000, -81.076
1610.7000, -85.958
1610.8000, -78.392
1610.9000, -80.713
1611.0000,-210.000
1611.1000, -79.705
1611.2000, -81.931
1611.3000, -85.781
1611.4000, -80.703
1611.5000, -88.722
1611.6000, -81.148
1611.7000, -81.717
1611.8000,-210.000
1611.9000, -80.984
1612.0000, -83.354
1612.1000, -80.307
1612.2000, -79.214
1612.3000, -80.007
1612.4000,-210.000
1612.5000,-210.000
1612.6000, -82.036
1612.7000, -80.593
1612.8000, -82.650
1612.9000,-210.000
1613.0000, -79.459
1613.1000, -80.050
1613.2000, -84.068
1613.3000, -80.052
1613.4000, -83.196
1613.5000, -85.427
1613.6000, -80.218
1613.7000, -80.778
1613.8000, -81.575
1613.9000,-100.084
1614.0000, -81.118
1614.1000, -82.087
1614.2000, -80.523
1614.3000, -85.410
1614.4000, -84.171
1614.5000, -81.824
1614.6000, -87.451
1614.7000, -80.826
1614.8000, -82.150
1614.9000, -82.098
1615.0000, -80.305
1615.1000, -80.816
1615.2000, -81.640
1615.3000, -81.041
1615.4000, -89.640
1615.5000, -81.042
1615.6000, -80.347
1615.7000, -79.458
1615.8000, -82.899
1615.9000, -80.933
1616.0000, -81.932
1616.1000, -81.273
1616.2000, -80.782
1616.3000, -80.399
1616.4000, -78.962
1616.5000, -80.948
1616.6000, -80.042
1616.7000, -80.488
1616.8000, -78.783
1616.9000, -78.958
1617.0000, -76.846
1617.1000,-210.000
1617.2000, -78.494
1617.3000, -80.497
1617.4000, -78.054
1617.5000, -77.397
1617.6000, -84.572
1617.7000, -76.833
1617.8000, -81.074
1617.9000, -78.373
1618.0000, -80.420
1618.1000, -76.390
1618.2000, -80.685
1618.3000, -78.845
1618.4000, -78.263
1618.5000, -77.759
1618.6000, -79.076
1618.7000, -77.246
1618.8000, -77.837
1618.9000, -78.627
1619.0000, -76.970
1619.1000, -77.102
1619.2000, -79.535
1619.3000, -79.504
1619.4000, -75.164
1619.5000, -80.147
1619.6000, -76.632
1619.7000, -77.174
1619.8000, -77.457
1619.9000, -77.466
1620.0000, -79.669
1620.1000, -78.559
1620.2000, -80.201
1620.3000, -80.719
1620.4000, -82.749
1620.5000, -81.895
1620.6000, -79.896
1620.7000, -81.507
1620.8000, -94.989
1620.9000, -80.910
1621.0000, -79.600
1621.1000,-210.000
1621.2000, -81.781
1621.3000, -81.978
1621.4000, -80.073
1621.5000, -82.295
1621.6000, -83.998
1621.7000, -82.093
1621.8000, -81.568
1621.9000, -81.725
1622.0000, -83.595
1622.1000, -82.606
1622.2000, -80.641
1622.3000, -81.997
1622.4000, -91.957
1622.5000, -79.611
1622.6000, -83.748
1622.7000, -82.991
1622.8000, -86.102
1622.9000, -81.112
1623.0000, -81.363
1623.1000, -82.937
1623.2000, -82.814
1623.3000, -83.100
1623.4000, -79.761
1623.5000, -82.238
1623.6000, -81.085
1623.7000, -84.756
1623.8000, -81.052
1623.9000, -82.170
1624.0000, -81.487
1624.1000, -80.459
1624.2000, -79.897
1624.3000, -84.102
1624.4000, -83.344
1624.5000, -81.578
1624.6000, -80.611
1624.7000, -82.056
1624.8000, -80.201
1624.9000, -79.408
1625.0000, -81.212
1625.1000, -82.957
1625.2000, -92.295
1625.3000, -81.981
1625.4000, -78.707
1625.5000, -80.054
1625.6000, -84.244
1625.7000, -81.384
1625.8000, -81.285
1625.9000, -80.036
1626.0000, -80.725
1626.1000, -80.230
1626.2000, -83.736
1626.3000, -86.214
1626.4000, -85.045
1626.5000, -80.586
1626.6000, -81.155
1626.7000, -80.151
1626.8000, -85.130
1626.9000, -78.824
1627.0000, -81.712
1627.1000, -83.105
1627.2000, -80.800
1627.3000, -81.566
1627.4000, -80.892
1627.5000, -78.301
1627.6000, -82.971
1627.7000,-210.000
1627.8000, -81.852
1627.9000, -81.165
1628.0000, -81.474
1628.1000, -78.847
1628.2000, -79.164
1628.3000, -79.074
1628.4000,-210.000
1628.5000, -80.647
1628.6000, -80.184
1628.7000, -79.246
1628.8000, -80.535
1628.9000, -79.446
1629.0000,-210.000
1629.1000, -81.995
1629.2000, -81.343
1629.3000, -83.269
1629.4000, -80.401
1629.5000, -80.597
1629.6000, -80.347
1629.7000, -91.700
1629.8000, -83.518
1629.9000, -79.843
1630.0000, -81.021
1630.1000, -81.316
1630.2000, -80.306
1630.3000, -80.032
1630.4000,-210.000
1630.5000, -77.773
1630.6000,-210.000
1630.7000, -78.613
1630.8000, -84.598
1630.9000, -83.119
1631.0000, -78.844
1631.1000, -84.968
1631.2000, -78.554
1631.3000, -88.762
1631.4000, -79.132
1631.5000, -81.276
1631.6000, -78.201
1631.7000,-210.000
1631.8000, -78.680
1631.9000,-210.000
1632.0000, -79.104
1632.1000, -82.613
1632.2000, -79.920
1632.3000, -87.636
1632.4000, -80.584
1632.5000, -81.391
1632.6000, -82.126
1632.7000, -77.707
1632.8000, -85.335
1632.9000, -80.823
1633.0000, -95.282
1633.1000, -80.315
1633.2000, -79.738
1633.3000, -80.999
1633.4000, -82.636
1633.5000, -81.678
1633.6000, -80.779
1633.7000, -79.370
1633.8000, -77.796
1633.9000,-210.000
1634.0000, -78.040
1634.1000, -80.740
1634.2000, -83.281
1634.3000, -80.867
1634.4000, -89.842
1634.5000, -81.058
1634.6000, -77.987
1634.7000, -88.916
1634.8000, -82.804
1634.9000, -79.363
1635.0000, -77.412
1635.1000, -86.878
1635.2000, -87.940
1635.3000, -81.304
1635.4000, -83.436
1635.5000, -78.007
1635.6000, -81.154
1635.7000, -79.534
1635.8000, -80.200
1635.9000, -78.618
1636.0000, -86.320
1636.1000, -81.201
1636.2000, -79.398
1636.3000, -82.425
1636.4000, -79.839
1636.5000, -79.113
1636.6000, -80.067
1636.7000, -86.452
1636.8000, -78.548
1636.9000, -81.008
1637.0000, -82.146
1637.1000, -80.590
1637.2000, -80.287
1637.3000, -84.434
1637.4000, -84.817
1637.5000, -79.332
1637.6000, -79.631
1637.7000, -81.425
1637.8000, -84.830
1637.9000, -78.252
1638.0000, -77.989
1638.1000, -79.064
1638.2000, -80.129
1638.3000,-210.000
1638.4000, -80.733
1638.5000, -78.556
1638.6000, -80.828
1638.7000, -79.200
1638.8000,-210.000
1638.9000, -79.858
1639.0000, -79.015
1639.1000, -79.462
1639.2000, -79.544
1639.3000, -77.872
1639.4000, -80.491
1639.5000,-210.000
1639.6000, -78.033
1639.7000, -80.781
1639.8000, -77.221
1639.9000, -82.330
1640.0000, -80.533
1640.1000, -81.056
1640.2000, -82.144
1640.3000, -76.055
1640.4000, -78.224
1640.5000,-210.000
1640.6000, -78.888
1640.7000, -81.134
1640.8000, -78.816
1640.9000, -79.494
1641.0000, -79.061
1641.1000, -79.018
1641.2000, -75.880
1641.3000, -91.798
1641.4000, -80.724
1641.5000,-210.000
1641.6000, -73.946
1641.7000, -82.769
1641.8000, -84.042
1641.9000, -78.612
1642.0000, -80.260
1642.1000, -79.157
1642.2000, -79.313
1642.3000, -75.839
1642.4000,-210.000
1642.5000, -75.089
1642.6000, -76.919
1642.7000, -77.853
1642.8000, -80.743
1642.9000, -90.822
1643.0000, -79.554
1643.1000, -79.149
1643.2000, -74.459
1643.3000,-210.000
1643.4000, -76.868
1643.5000, -75.371
1643.6000, -80.620
1643.7000,-210.000
1643.8000, -77.693
1643.9000, -78.495
1644.0000, -77.382
1644.1000,-210.000
1644.2000, -77.753
1644.3000, -82.008
1644.4000, -79.776
1644.5000, -80.827
1644.6000, -77.694
1644.7000, -86.127
1644.8000, -76.223
1644.9000,-210.000
1645.0000, -78.442
1645.1000, -77.627
1645.2000, -78.907
1645.3000, -81.850
1645.4000, -76.500
1645.5000, -79.735
1645.6000, -76.377
1645.7000, -77.211
1645.8000, -78.896
1645.9000, -77.554
1646.0000, -78.157
1646.1000, -79.923
1646.2000, -77.148
1646.3000, -77.548
1646.4000, -82.988
1646.5000, -78.041
1646.6000, -83.033
1646.7000, -75.019
1646.8000, -79.142
1646.9000,-210.000
1647.0000, -77.236
1647.1000, -80.194
1647.2000, -76.792
1647.3000, -81.907
1647.4000, -96.683
1647.5000, -86.234
1647.6000, -76.658
1647.7000, -76.292
1647.8000, -76.576
1647.9000, -78.676
1648.0000, -79.545
1648.1000, -75.970
1648.2000, -83.076
1648.3000, -75.203
1648.4000, -78.553
1648.5000, -78.599
1648.6000, -84.342
1648.7000, -77.091
1648.8000, -83.777
1648.9000, -74.103
1649.0000,-210.000
1649.1000, -80.002
1649.2000, -75.595
1649.3000, -76.169
1649.4000, -76.984
1649.5000, -74.466
1649.6000, -79.462
1649.7000, -78.727
1649.8000, -77.026
1649.9000, -76.504
1650.0000,-210.000
1650.1000, -74.946
1650.2000, -78.141
1650.3000, -81.444
1650.4000, -84.758
1650.5000, -73.725
1650.6000, -76.176
1650.7000, -81.423
1650.8000, -78.643
1650.9000, -75.325
1651.0000, -82.102
1651.1000, -72.952
1651.2000, -95.462
1651.3000,-210.000
1651.4000, -73.466
1651.5000, -77.077
1651.6000, -82.190
1651.7000, -77.778
1651.8000, -75.049
1651.9000, -75.660
1652.0000, -80.891
1652.1000, -81.602
1652.2000, -74.930
1652.3000, -76.628
1652.4000, -75.506
1652.5000, -72.724
1652.6000, -79.283
1652.7000,-210.000
1652.8000, -75.802
1652.9000,-210.000
1653.0000, -72.328
1653.1000,-210.000
1653.2000, -73.094
1653.3000,-210.000
1653.4000, -74.939
1653.5000, -84.348
1653.6000, -74.138
1653.7000, -77.460
1653.8000, -84.302
1653.9000, -75.312
1654.0000, -76.271
1654.1000, -81.382
1654.2000, -78.727
1654.3000, -75.112
1654.4000, -80.819
1654.5000, -73.443
1654.6000, -74.667
1654.7000, -75.669
1654.8000, -78.881
1654.9000, -72.013
1655.0000,-210.000
1655.1000, -77.419
1655.2000, -78.137
1655.3000,-210.000
1655.4000, -78.379
1655.5000, -75.694
1655.6000, -74.267
1655.7000, -80.989
1655.8000, -75.204
1655.9000, -74.870
1656.0000, -75.738
1656.1000, -77.766
1656.2000, -87.780
1656.3000, -73.222
1656.4000, -75.697
1656.5000, -78.290
1656.6000, -73.939
1656.7000,-210.000
1656.8000, -76.022
1656.9000, -74.856
1657.0000, -76.322
1657.1000, -75.611
1657.2000, -74.917
1657.3000, -80.158
1657.4000, -74.791
1657.5000, -76.445
1657.6000, -74.916
1657.7000, -75.351
1657.8000, -79.066
1657.9000, -74.978
1658.0000, -75.447
1658.1000, -72.063
1658.2000,-210.000
1658.3000, -76.330
1658.4000, -74.506
1658.5000, -73.769
1658.6000, -73.441
1658.7000, -72.285
1658.8000,-210.000
1658.9000, -72.124
1659.0000, -73.010
1659.1000, -81.928
1659.2000, -73.306
1659.3000, -74.727
1659.4000, -74.888
1659.5000,-210.000
1659.6000, -75.078
1659.7000, -73.710
1659.8000, -77.897
1659.9000, -71.766
1660.0000,-210.000
1660.1000, -72.605
1660.2000, -78.851
1660.3000, -78.089
1660.4000, -74.293
1660.5000, -76.695
1660.6000, -79.626
1660.7000, -73.427
1660.8000, -72.839
1660.9000, -78.989
1661.0000, -73.887
1661.1000, -73.912
1661.2000, -71.147
1661.3000, -85.070
1661.4000, -83.519
1661.5000, -73.136
1661.6000, -76.864
1661.7000, -75.760
1661.8000, -74.182
1661.9000, -74.655
1662.0000, -80.351
1662.1000, -77.097
1662.2000, -76.267
1662.3000, -73.421
1662.4000, -70.900
1662.5000,-210.000
1662.6000, -75.821
1662.7000, -73.838
1662.8000, -73.387
1662.9000,-210.000
1663.0000, -73.973
1663.1000,-210.000
1663.2000, -73.070
1663.3000, -69.920
1663.4000,-210.000
1663.5000, -74.229
1663.6000, -73.813
1663.7000, -70.907
1663.8000, -77.507
1663.9000, -72.457
1664.0000, -72.242
1664.1000, -79.930
1664.2000, -75.354
1664.3000, -72.176
1664.4000, -74.073
1664.5000, -72.269
1664.6000, -74.214
1664.7000, -77.692
1664.8000, -71.116
1664.9000, -80.224
1665.0000, -72.487
1665.1000, -72.651
1665.2000, -71.575
1665.3000, -75.937
1665.4000, -71.578
1665.5000, -72.525
1665.6000, -75.386
1665.7000, -72.355
1665.8000, -71.652
1665.9000, -76.648
1666.0000, -74.443
1666.1000, -72.829
1666.2000, -73.830
1666.3000, -75.900
1666.4000, -76.037
1666.5000, -71.664
1666.6000, -72.966
1666.7000, -72.178
1666.8000, -72.477
1666.9000, -75.826
1667.0000, -75.529
1667.1000, -73.316
1667.2000, -74.821
1667.3000, -70.136
1667.4000, -71.874
1667.5000, -73.021
1667.6000,-210.000
1667.7000, -71.740
1667.8000, -79.073
1667.9000, -74.469
1668.0000, -70.950
1668.1000, -73.755
1668.2000, -73.830
1668.3000, -73.849
1668.4000, -71.549
1668.5000, -70.286
1668.6000, -71.302
1668.7000, -76.652
1668.8000, -71.502
1668.9000, -73.945
1669.0000, -74.427
1669.1000, -73.810
1669.2000, -71.194
1669.3000, -71.626
1669.4000, -74.587
1669.5000, -74.494
1669.6000, -72.144
1669.7000, -74.282
1669.8000, -75.221
1669.9000, -72.737
1670.0000, -75.151
1670.1000, -71.501
1670.2000, -69.323
1670.3000,-210.000
1670.4000, -74.941
1670.5000, -70.816
1670.6000, -76.705
1670.7000, -70.751
1670.8000, -69.448
1670.9000, -72.762
1671.0000, -75.169
1671.1000, -71.548
1671.2000, -72.495
1671.3000, -71.267
1671.4000, -74.154
1671.5000, -70.286
1671.6000, -71.819
1671.7000, -69.212
1671.8000, -75.503
1671.9000, -71.881
1672.0000, -77.374
1672.1000,-210.000
1672.2000, -68.590
1672.3000, -86.608
1672.4000, -73.384
1672.5000, -69.438
1672.6000, -70.863
1672.7000, -68.317
1672.8000, -72.775
1672.9000,-210.000
1673.0000, -75.722
1673.1000, -68.397
1673.2000, -72.738
1673.3000, -69.014
1673.4000, -72.728
1673.5000, -75.480
1673.6000, -71.562
1673.7000,-210.000
1673.8000, -71.633
1673.9000, -69.418
1674.0000, -73.042
1674.1000, -72.274
1674.2000, -70.870
1674.3000, -72.827
1674.4000, -76.961
1674.5000, -72.755
1674.6000, -69.954
1674.7000, -75.577
1674.8000, -69.352
1674.9000, -72.150
1675.0000, -67.140
1675.1000, -73.595
1675.2000, -73.698
1675.3000, -68.247
1675.4000, -71.147
1675.5000, -73.288
1675.6000, -69.716
1675.7000, -81.533
1675.8000, -69.908
1675.9000, -69.982
1676.0000, -77.011
1676.1000, -70.301
1676.2000, -72.582
1676.3000, -69.498
1676.4000, -71.339
1676.5000, -69.824
1676.6000, -71.228
1676.7000, -73.367
1676.8000, -69.606
1676.9000, -72.260
1677.0000, -67.938
1677.1000, -77.105
1677.2000, -70.510
1677.3000, -67.928
1677.4000, -68.264
1677.5000,-210.000
1677.6000, -72.270
1677.7000,-210.000
1677.8000, -67.099
1677.9000, -70.525
1678.0000, -67.137
1678.1000,-210.000
1678.2000, -73.060
1678.3000, -80.958
1678.4000, -68.821
1678.5000, -71.474
1678.6000, -70.209
1678.7000, -68.110
1678.8000, -81.174
1678.9000, -68.045
1679.0000, -74.583
1679.1000, -68.668
1679.2000, -69.374
1679.3000, -66.374
1679.4000, -73.024
1679.5000, -71.145
1679.6000, -68.083
1679.7000, -89.551
1679.8000, -72.661
1679.9000, -71.050
1680.0000, -79.009
1680.1000, -65.024
1680.2000, -70.510
1680.3000,-210.000
1680.4000, -70.580
1680.5000, -67.284
1680.6000,-210.000
1680.7000, -68.058
1680.8000, -72.477
1680.9000, -67.029
1681.0000, -68.774
1681.1000, -79.647
1681.2000, -68.353
1681.3000, -67.492
1681.4000, -72.072
1681.5000, -68.865
1681.6000, -68.431
1681.7000, -78.471
1681.8000, -67.115
1681.9000, -68.756
1682.0000, -72.437
1682.1000, -68.695
1682.2000, -72.804
1682.3000, -67.747
1682.4000,-210.000
1682.5000, -65.562
1682.6000, -76.087
1682.7000, -68.602
1682.8000, -67.450
1682.9000, -74.513
1683.0000, -68.013
1683.1000, -68.488
1683.2000, -68.883
1683.3000, -68.391
1683.4000, -70.822
1683.5000, -66.455
1683.6000, -68.417
1683.7000, -67.488
1683.8000, -67.216
1683.9000,-210.000
1684.0000, -67.368
1684.1000, -69.250
1684.2000, -70.628
1684.3000,-210.000
1684.4000, -67.736
1684.5000, -68.334
1684.6000, -70.065
1684.7000, -67.393
1684.8000, -72.074
1684.9000, -69.325
1685.0000, -69.161
1685.1000, -69.755
1685.2000, -70.864
1685.3000, -66.869
1685.4000, -67.314
1685.5000, -69.362
1685.6000, -66.648
1685.7000,-210.000
1685.8000, -70.899
1685.9000, -68.544
1686.0000, -69.255
1686.1000, -70.060
1686.2000, -67.940
1686.3000, -68.810
1686.4000, -67.329
1686.5000, -66.735
1686.6000, -69.337
1686.7000, -68.510
1686.8000, -67.127
1686.9000, -68.146
1687.0000, -69.078
1687.1000,-210.000
1687.2000, -68.006
1687.3000, -66.340
1687.4000, -67.315
1687.5000, -67.265
1687.6000, -68.093
1687.7000, -68.969
1687.8000, -68.263
1687.9000, -67.682
1688.0000, -68.412
1688.1000, -68.316
1688.2000, -66.482
1688.3000, -65.019
1688.4000, -68.378
1688.5000, -73.142
1688.6000, -66.445
1688.7000, -67.425
1688.8000, -67.212
1688.9000, -67.390
1689.0000, -65.076
1689.1000, -65.845
1689.2000,-210.000
1689.3000, -74.185
1689.4000, -65.165
1689.5000, -70.979
1689.6000, -63.651
1689.7000, -67.489
1689.8000, -76.049
1689.9000, -67.192
1690.0000, -67.768
1690.1000, -70.083
1690.2000, -66.908
1690.3000, -69.541
1690.4000, -70.516
1690.5000, -68.190
1690.6000, -68.168
1690.7000,-210.000
1690.8000, -68.057
1690.9000, -66.718
1691.0000, -69.333
1691.1000, -92.819
1691.2000, -74.962
1691.3000, -63.846
1691.4000, -69.770
1691.5000, -74.781
1691.6000, -65.324
1691.7000, -64.057
1691.8000,-210.000
1691.9000, -67.215
1692.0000, -65.739
1692.1000, -71.488
1692.2000, -69.603
1692.3000, -67.609
1692.4000, -66.565
1692.5000, -70.153
1692.6000, -66.953
1692.7000, -69.749
1692.8000, -64.908
1692.9000, -66.835
1693.0000, -72.288
1693.1000, -65.926
1693.2000, -70.726
1693.3000, -63.012
1693.4000, -65.609
1693.5000, -66.666
1693.6000, -66.180
1693.7000,-210.000
1693.8000, -64.870
1693.9000,-210.000
1694.0000, -64.130
1694.1000, -66.114
1694.2000, -67.916
1694.3000, -64.439
1694.4000, -68.863
1694.5000, -62.542
1694.6000, -77.728
1694.7000, -65.140
1694.8000, -67.407
1694.9000, -68.103
1695.0000, -64.243
1695.1000, -62.072
1695.2000, -72.501
1695.3000, -67.314
1695.4000, -67.072
1695.5000, -67.538
1695.6000, -65.127
1695.7000, -67.347
1695.8000, -65.799
1695.9000, -67.725
1696.0000, -64.182
1696.1000, -71.943
1696.2000, -65.107
1696.3000, -63.749
1696.4000, -67.349
1696.5000, -66.319
1696.6000, -64.899
1696.7000, -69.966
1696.8000, -76.782
1696.9000, -67.781
1697.0000, -67.599
1697.1000, -63.126
1697.2000, -67.243
1697.3000, -62.392
1697.4000, -64.092
1697.5000, -64.397
1697.6000, -68.570
1697.7000, -63.403
1697.8000, -77.803
1697.9000,-210.000
1698.0000, -66.836
1698.1000, -64.914
1698.2000, -65.744
1698.3000, -64.025
1698.4000, -64.862
1698.5000, -68.259
1698.6000, -62.716
1698.7000, -65.037
1698.8000,-210.000
1698.9000, -67.686
1699.0000, -66.563
1699.1000,-210.000
1699.2000, -62.752
1699.3000, -65.299
1699.4000, -65.338
1699.5000, -63.636
1699.6000, -80.638
1699.7000, -65.717
1699.8000, -63.585
1699.9000, -69.678
1700.0000, -64.557
