70BCSV 	
// AQ6370B OPTICAL SPECTRUM ANALYZER //                 
25
"CTRWL",1300.000000
"SPAN", 800.000000
"START WL", 900.000000
"STOP WL",1700.000000
"WLFREQ", 0
"REFL",-17.2
"LSCL",10.0
"RESLN",0.500
"AVG",   1
"SMPLAUTO",      1
"SMPL",       8001
"SMPLINTVL",0.1000
"HIGH1"
"MEAS"
"LSUNT",0
"NMSKH","OFF"
"RESCOR",0
"RESPARM", 9740
"FREQPARM", 9740






"[TRACE DATA]"
 900.0000, -66.585
 900.1000, -66.651
 900.2000, -73.387
 900.3000, -65.817
 900.4000, -70.027
 900.5000, -71.448
 900.6000, -67.528
 900.7000, -68.003
 900.8000, -67.019
 900.9000, -69.691
 901.0000, -67.832
 901.1000, -76.806
 901.2000, -66.677
 901.3000, -69.193
 901.4000, -70.778
 901.5000, -68.400
 901.6000, -68.532
 901.7000, -68.993
 901.8000, -68.668
 901.9000, -70.353
 902.0000, -68.593
 902.1000, -68.930
 902.2000, -70.247
 902.3000, -67.760
 902.4000, -69.361
 902.5000, -68.402
 902.6000, -69.282
 902.7000, -67.890
 902.8000, -70.106
 902.9000, -68.643
 903.0000, -68.245
 903.1000, -69.767
 903.2000, -68.963
 903.3000, -69.320
 903.4000, -68.985
 903.5000, -69.608
 903.6000, -68.325
 903.7000, -69.482
 903.8000, -68.828
 903.9000, -68.088
 904.0000, -70.141
 904.1000, -68.919
 904.2000, -67.987
 904.3000, -68.513
 904.4000, -69.144
 904.5000, -69.465
 904.6000, -70.361
 904.7000, -68.633
 904.8000, -69.235
 904.9000, -70.244
 905.0000, -70.071
 905.1000, -68.075
 905.2000, -68.680
 905.3000, -70.474
 905.4000, -69.590
 905.5000, -70.111
 905.6000, -68.434
 905.7000, -69.547
 905.8000, -70.283
 905.9000, -70.029
 906.0000, -71.017
 906.1000, -70.285
 906.2000, -69.337
 906.3000, -68.425
 906.4000, -70.865
 906.5000, -68.352
 906.6000, -70.020
 906.7000, -69.447
 906.8000, -70.031
 906.9000, -69.510
 907.0000, -68.995
 907.1000, -71.085
 907.2000, -69.605
 907.3000, -70.192
 907.4000, -70.175
 907.5000, -69.652
 907.6000, -70.051
 907.7000, -70.830
 907.8000, -69.657
 907.9000, -69.361
 908.0000, -69.571
 908.1000, -69.268
 908.2000, -69.662
 908.3000, -72.521
 908.4000, -69.426
 908.5000, -68.851
 908.6000, -71.489
 908.7000, -70.200
 908.8000, -69.677
 908.9000, -69.155
 909.0000, -70.821
 909.1000, -70.517
 909.2000, -71.105
 909.3000, -68.765
 909.4000, -70.857
 909.5000, -69.196
 909.6000, -71.720
 909.7000, -71.540
 909.8000, -69.225
 909.9000, -69.030
 910.0000, -70.724
 910.1000, -71.746
 910.2000, -69.835
 910.3000, -71.479
 910.4000, -69.581
 910.5000, -70.103
 910.6000, -69.159
 910.7000, -69.195
 910.8000, -75.964
 910.9000, -69.566
 911.0000, -72.534
 911.1000, -74.247
 911.2000, -71.145
 911.3000, -71.371
 911.4000, -70.953
 911.5000, -69.812
 911.6000, -70.841
 911.7000, -71.252
 911.8000, -70.498
 911.9000, -71.238
 912.0000, -69.467
 912.1000, -70.785
 912.2000, -72.745
 912.3000, -70.918
 912.4000, -70.447
 912.5000, -70.711
 912.6000, -71.410
 912.7000, -71.025
 912.8000, -70.948
 912.9000, -69.762
 913.0000, -70.373
 913.1000, -71.106
 913.2000, -69.331
 913.3000, -73.498
 913.4000, -70.036
 913.5000, -69.210
 913.6000,-210.000
 913.7000, -69.640
 913.8000, -70.317
 913.9000, -72.097
 914.0000, -71.127
 914.1000, -70.274
 914.2000, -72.932
 914.3000, -70.982
 914.4000, -69.114
 914.5000, -73.037
 914.6000, -69.821
 914.7000, -75.590
 914.8000, -71.096
 914.9000, -69.288
 915.0000, -74.564
 915.1000, -72.064
 915.2000, -71.627
 915.3000, -71.476
 915.4000, -71.373
 915.5000, -71.939
 915.6000, -72.538
 915.7000, -70.925
 915.8000, -72.605
 915.9000, -73.557
 916.0000, -70.663
 916.1000, -72.090
 916.2000, -72.156
 916.3000, -72.373
 916.4000, -70.458
 916.5000, -72.466
 916.6000, -76.696
 916.7000, -71.724
 916.8000, -71.211
 916.9000, -72.002
 917.0000, -71.347
 917.1000, -70.063
 917.2000, -71.721
 917.3000, -76.855
 917.4000, -69.549
 917.5000, -73.528
 917.6000, -74.843
 917.7000, -70.620
 917.8000, -72.478
 917.9000, -71.806
 918.0000, -71.247
 918.1000, -72.985
 918.2000, -71.026
 918.3000, -74.171
 918.4000, -71.551
 918.5000, -72.476
 918.6000, -71.271
 918.7000, -70.361
 918.8000, -72.077
 918.9000, -76.088
 919.0000, -72.346
 919.1000, -71.607
 919.2000, -72.016
 919.3000, -73.375
 919.4000, -71.130
 919.5000, -71.145
 919.6000, -73.495
 919.7000, -72.437
 919.8000, -73.179
 919.9000, -74.590
 920.0000, -71.811
 920.1000, -71.178
 920.2000, -70.681
 920.3000, -75.515
 920.4000, -72.335
 920.5000, -70.628
 920.6000, -71.638
 920.7000, -73.514
 920.8000, -76.613
 920.9000, -71.825
 921.0000, -72.112
 921.1000, -71.839
 921.2000, -74.407
 921.3000, -73.159
 921.4000, -72.352
 921.5000, -72.489
 921.6000, -73.724
 921.7000, -70.676
 921.8000, -73.393
 921.9000, -73.573
 922.0000, -74.712
 922.1000, -73.702
 922.2000, -72.889
 922.3000, -72.861
 922.4000, -72.937
 922.5000, -73.163
 922.6000, -72.612
 922.7000, -72.695
 922.8000, -72.040
 922.9000, -73.710
 923.0000, -72.546
 923.1000, -73.728
 923.2000, -72.464
 923.3000, -74.034
 923.4000, -71.224
 923.5000, -73.506
 923.6000, -72.470
 923.7000, -73.078
 923.8000, -73.302
 923.9000, -72.867
 924.0000, -71.979
 924.1000, -73.971
 924.2000, -73.191
 924.3000, -72.075
 924.4000, -71.465
 924.5000, -74.552
 924.6000, -75.668
 924.7000, -72.707
 924.8000, -72.084
 924.9000, -72.704
 925.0000, -73.320
 925.1000, -72.945
 925.2000, -72.601
 925.3000, -73.943
 925.4000, -72.723
 925.5000, -72.450
 925.6000, -73.145
 925.7000, -74.578
 925.8000, -73.001
 925.9000, -72.105
 926.0000, -71.852
 926.1000, -71.788
 926.2000, -76.832
 926.3000, -73.013
 926.4000, -73.389
 926.5000, -73.823
 926.6000, -73.202
 926.7000, -73.297
 926.8000, -74.630
 926.9000, -72.370
 927.0000, -75.126
 927.1000, -74.046
 927.2000, -72.159
 927.3000, -73.275
 927.4000, -73.621
 927.5000, -73.584
 927.6000, -73.806
 927.7000, -75.283
 927.8000, -72.781
 927.9000, -73.281
 928.0000, -74.326
 928.1000, -72.714
 928.2000, -74.019
 928.3000, -75.585
 928.4000, -72.646
 928.5000, -74.043
 928.6000, -72.511
 928.7000, -74.831
 928.8000, -73.112
 928.9000, -73.766
 929.0000, -73.864
 929.1000, -73.520
 929.2000, -73.625
 929.3000, -73.393
 929.4000, -73.717
 929.5000, -75.055
 929.6000, -72.756
 929.7000, -74.150
 929.8000, -72.987
 929.9000, -73.718
 930.0000, -74.121
 930.1000, -76.270
 930.2000, -73.704
 930.3000, -73.423
 930.4000, -74.506
 930.5000, -73.843
 930.6000, -72.119
 930.7000, -75.507
 930.8000, -73.969
 930.9000, -74.173
 931.0000, -73.023
 931.1000, -74.895
 931.2000, -73.715
 931.3000, -73.353
 931.4000, -73.325
 931.5000, -75.697
 931.6000, -73.679
 931.7000, -74.175
 931.8000, -73.909
 931.9000, -80.019
 932.0000, -72.984
 932.1000, -72.883
 932.2000, -73.805
 932.3000, -76.452
 932.4000, -74.377
 932.5000, -74.260
 932.6000, -74.211
 932.7000, -74.126
 932.8000, -73.703
 932.9000, -74.430
 933.0000, -74.075
 933.1000, -75.560
 933.2000, -74.935
 933.3000, -72.218
 933.4000, -74.952
 933.5000, -74.795
 933.6000, -73.905
 933.7000, -74.287
 933.8000, -73.420
 933.9000, -74.269
 934.0000, -74.692
 934.1000, -73.623
 934.2000, -74.298
 934.3000, -77.239
 934.4000, -74.650
 934.5000, -74.841
 934.6000, -73.908
 934.7000, -73.378
 934.8000, -73.005
 934.9000, -76.902
 935.0000, -74.626
 935.1000, -74.855
 935.2000, -75.725
 935.3000, -74.132
 935.4000, -73.384
 935.5000, -73.487
 935.6000, -74.125
 935.7000, -75.826
 935.8000, -72.818
 935.9000, -73.337
 936.0000, -78.194
 936.1000, -78.381
 936.2000, -71.753
 936.3000, -76.529
 936.4000, -77.087
 936.5000, -73.918
 936.6000, -74.661
 936.7000, -73.804
 936.8000, -75.743
 936.9000, -73.368
 937.0000, -75.581
 937.1000, -73.951
 937.2000, -74.255
 937.3000, -74.885
 937.4000, -73.845
 937.5000, -74.326
 937.6000, -73.774
 937.7000, -73.473
 937.8000, -76.815
 937.9000, -72.799
 938.0000, -73.675
 938.1000, -72.277
 938.2000, -72.718
 938.3000, -73.157
 938.4000, -72.419
 938.5000, -72.795
 938.6000, -72.657
 938.7000, -73.175
 938.8000, -72.098
 938.9000, -71.965
 939.0000, -72.845
 939.1000, -72.778
 939.2000, -70.951
 939.3000, -78.088
 939.4000, -74.061
 939.5000, -74.976
 939.6000, -74.062
 939.7000, -73.991
 939.8000, -73.853
 939.9000, -72.611
 940.0000, -76.475
 940.1000, -76.880
 940.2000, -73.983
 940.3000, -73.582
 940.4000, -74.674
 940.5000, -74.881
 940.6000, -74.157
 940.7000, -74.541
 940.8000, -75.827
 940.9000, -75.332
 941.0000, -75.440
 941.1000, -74.627
 941.2000, -75.182
 941.3000, -74.690
 941.4000, -75.357
 941.5000, -74.159
 941.6000, -76.184
 941.7000, -76.340
 941.8000, -75.508
 941.9000, -75.767
 942.0000, -74.927
 942.1000, -73.623
 942.2000, -77.556
 942.3000, -74.311
 942.4000, -74.647
 942.5000, -74.231
 942.6000, -74.303
 942.7000, -75.462
 942.8000, -74.448
 942.9000, -75.004
 943.0000, -77.493
 943.1000, -74.177
 943.2000, -74.904
 943.3000, -74.183
 943.4000, -75.552
 943.5000, -77.375
 943.6000, -73.750
 943.7000, -72.874
 943.8000, -75.177
 943.9000, -72.960
 944.0000, -76.891
 944.1000, -79.486
 944.2000, -73.794
 944.3000, -74.728
 944.4000, -74.878
 944.5000, -73.352
 944.6000, -74.638
 944.7000, -74.655
 944.8000, -76.575
 944.9000, -74.844
 945.0000, -72.063
 945.1000, -75.412
 945.2000, -76.032
 945.3000, -72.116
 945.4000, -74.512
 945.5000, -72.518
 945.6000, -72.085
 945.7000, -72.152
 945.8000, -72.119
 945.9000, -70.850
 946.0000, -70.687
 946.1000, -70.793
 946.2000, -70.457
 946.3000, -70.158
 946.4000, -71.940
 946.5000, -70.803
 946.6000, -71.435
 946.7000, -71.443
 946.8000, -73.957
 946.9000, -72.619
 947.0000, -72.520
 947.1000, -74.348
 947.2000, -74.094
 947.3000, -74.248
 947.4000, -75.100
 947.5000, -72.519
 947.6000, -73.003
 947.7000, -74.685
 947.8000, -76.800
 947.9000, -75.880
 948.0000, -75.509
 948.1000, -72.588
 948.2000, -79.685
 948.3000, -74.568
 948.4000, -74.202
 948.5000, -76.549
 948.6000, -76.375
 948.7000, -73.635
 948.8000, -76.357
 948.9000, -76.528
 949.0000, -73.415
 949.1000, -73.869
 949.2000, -76.267
 949.3000, -74.723
 949.4000, -77.712
 949.5000, -74.601
 949.6000, -73.973
 949.7000, -80.945
 949.8000, -74.295
 949.9000, -75.197
 950.0000, -74.105
 950.1000, -75.194
 950.2000, -74.358
 950.3000, -76.568
 950.4000, -74.185
 950.5000, -79.843
 950.6000, -75.720
 950.7000, -75.855
 950.8000, -75.331
 950.9000, -75.702
 951.0000, -78.691
 951.1000, -76.769
 951.2000, -75.461
 951.3000, -76.291
 951.4000, -78.279
 951.5000, -74.208
 951.6000, -73.835
 951.7000, -86.378
 951.8000, -74.208
 951.9000, -75.467
 952.0000, -75.821
 952.1000, -76.371
 952.2000, -77.137
 952.3000, -78.289
 952.4000, -74.335
 952.5000, -75.898
 952.6000, -74.695
 952.7000, -75.099
 952.8000, -77.443
 952.9000, -74.645
 953.0000, -75.446
 953.1000, -74.757
 953.2000, -76.366
 953.3000, -77.151
 953.4000, -74.466
 953.5000, -75.317
 953.6000, -74.498
 953.7000, -78.220
 953.8000, -74.594
 953.9000, -77.361
 954.0000, -74.149
 954.1000, -83.553
 954.2000, -75.813
 954.3000, -75.865
 954.4000, -76.400
 954.5000, -78.318
 954.6000, -75.467
 954.7000, -76.764
 954.8000, -76.015
 954.9000, -74.347
 955.0000, -75.371
 955.1000, -76.268
 955.2000, -75.348
 955.3000, -78.472
 955.4000, -74.835
 955.5000, -77.460
 955.6000, -75.695
 955.7000, -76.246
 955.8000, -75.380
 955.9000, -76.289
 956.0000, -75.950
 956.1000, -76.482
 956.2000, -77.019
 956.3000, -75.740
 956.4000, -75.896
 956.5000, -76.332
 956.6000, -75.220
 956.7000, -76.538
 956.8000, -76.074
 956.9000, -75.375
 957.0000, -74.956
 957.1000, -74.917
 957.2000, -79.538
 957.3000, -75.660
 957.4000, -75.758
 957.5000, -78.415
 957.6000, -74.578
 957.7000, -76.037
 957.8000, -76.424
 957.9000, -75.420
 958.0000, -77.112
 958.1000, -76.269
 958.2000, -76.264
 958.3000, -76.298
 958.4000, -76.726
 958.5000, -75.128
 958.6000, -75.283
 958.7000, -75.429
 958.8000, -76.144
 958.9000, -75.254
 959.0000, -76.236
 959.1000, -78.747
 959.2000, -74.828
 959.3000, -77.215
 959.4000, -75.201
 959.5000, -75.204
 959.6000, -77.696
 959.7000, -76.672
 959.8000, -74.586
 959.9000, -81.394
 960.0000, -74.862
 960.1000, -78.480
 960.2000, -77.590
 960.3000, -77.043
 960.4000, -76.111
 960.5000, -74.732
 960.6000, -76.312
 960.7000, -78.675
 960.8000, -77.606
 960.9000, -75.325
 961.0000, -74.684
 961.1000, -75.071
 961.2000, -87.666
 961.3000, -76.333
 961.4000, -73.529
 961.5000, -77.445
 961.6000, -76.635
 961.7000, -77.869
 961.8000, -78.364
 961.9000, -75.902
 962.0000, -75.431
 962.1000, -77.347
 962.2000, -76.848
 962.3000, -74.285
 962.4000, -74.715
 962.5000, -76.491
 962.6000, -85.741
 962.7000, -77.334
 962.8000, -76.125
 962.9000, -75.968
 963.0000, -79.008
 963.1000, -74.816
 963.2000, -74.759
 963.3000, -77.514
 963.4000, -77.721
 963.5000, -76.685
 963.6000, -77.762
 963.7000, -76.394
 963.8000, -76.186
 963.9000, -76.821
 964.0000, -75.990
 964.1000, -76.765
 964.2000, -76.528
 964.3000, -76.915
 964.4000, -74.956
 964.5000, -77.018
 964.6000, -77.006
 964.7000, -80.861
 964.8000, -75.353
 964.9000, -77.922
 965.0000, -76.834
 965.1000, -74.856
 965.2000, -74.090
 965.3000, -75.437
 965.4000, -93.454
 965.5000, -78.640
 965.6000, -76.498
 965.7000, -76.688
 965.8000, -75.446
 965.9000, -74.721
 966.0000, -77.490
 966.1000, -77.563
 966.2000, -78.005
 966.3000, -75.465
 966.4000, -77.408
 966.5000, -79.348
 966.6000, -78.246
 966.7000, -75.732
 966.8000, -76.952
 966.9000, -76.092
 967.0000, -78.941
 967.1000, -77.712
 967.2000, -76.032
 967.3000, -75.670
 967.4000, -77.510
 967.5000, -76.485
 967.6000, -79.659
 967.7000, -78.029
 967.8000, -77.047
 967.9000, -76.990
 968.0000, -76.082
 968.1000, -76.954
 968.2000, -78.711
 968.3000, -77.248
 968.4000, -76.227
 968.5000, -76.383
 968.6000, -76.996
 968.7000, -76.775
 968.8000, -74.309
 968.9000, -76.187
 969.0000, -78.376
 969.1000, -75.709
 969.2000, -77.321
 969.3000, -76.290
 969.4000, -76.052
 969.5000, -79.085
 969.6000, -75.524
 969.7000, -79.574
 969.8000, -76.768
 969.9000, -75.791
 970.0000, -76.546
 970.1000, -76.897
 970.2000, -77.080
 970.3000, -79.112
 970.4000, -81.533
 970.5000, -74.628
 970.6000, -76.299
 970.7000, -75.151
 970.8000, -82.282
 970.9000, -74.011
 971.0000, -75.905
 971.1000, -77.245
 971.2000, -75.295
 971.3000, -78.284
 971.4000, -77.962
 971.5000, -78.705
 971.6000, -77.192
 971.7000, -78.109
 971.8000, -76.520
 971.9000, -76.301
 972.0000, -76.707
 972.1000, -76.556
 972.2000, -77.980
 972.3000, -76.964
 972.4000, -75.716
 972.5000, -82.051
 972.6000, -75.098
 972.7000, -76.919
 972.8000, -74.537
 972.9000, -77.910
 973.0000, -77.755
 973.1000, -77.290
 973.2000, -77.220
 973.3000, -78.299
 973.4000, -76.332
 973.5000, -77.939
 973.6000, -77.486
 973.7000, -76.487
 973.8000, -77.088
 973.9000, -77.647
 974.0000, -76.022
 974.1000, -76.332
 974.2000, -80.033
 974.3000, -76.921
 974.4000, -76.178
 974.5000, -75.501
 974.6000, -80.522
 974.7000, -80.007
 974.8000, -75.793
 974.9000, -75.660
 975.0000, -78.136
 975.1000, -76.266
 975.2000, -77.705
 975.3000, -76.115
 975.4000, -76.128
 975.5000, -81.184
 975.6000, -78.947
 975.7000, -77.561
 975.8000, -77.654
 975.9000, -76.034
 976.0000, -77.603
 976.1000, -77.738
 976.2000, -76.609
 976.3000, -75.705
 976.4000, -77.790
 976.5000, -78.245
 976.6000, -76.064
 976.7000, -76.733
 976.8000, -76.394
 976.9000, -77.880
 977.0000, -75.841
 977.1000, -78.067
 977.2000, -76.589
 977.3000, -78.355
 977.4000, -75.975
 977.5000, -77.891
 977.6000, -77.952
 977.7000, -76.975
 977.8000, -77.656
 977.9000, -76.067
 978.0000, -76.622
 978.1000, -79.851
 978.2000, -76.517
 978.3000, -76.067
 978.4000, -78.499
 978.5000, -76.747
 978.6000, -76.182
 978.7000, -79.554
 978.8000, -78.187
 978.9000, -75.268
 979.0000, -77.598
 979.1000, -77.550
 979.2000, -77.606
 979.3000, -77.311
 979.4000, -78.431
 979.5000, -76.947
 979.6000, -78.561
 979.7000, -78.627
 979.8000, -75.949
 979.9000, -77.991
 980.0000, -76.644
 980.1000, -77.177
 980.2000, -77.887
 980.3000, -76.602
 980.4000, -77.906
 980.5000, -75.923
 980.6000, -78.732
 980.7000, -77.302
 980.8000, -77.015
 980.9000, -77.074
 981.0000, -79.874
 981.1000, -77.492
 981.2000, -77.332
 981.3000, -78.298
 981.4000, -75.159
 981.5000, -78.128
 981.6000, -79.557
 981.7000, -77.415
 981.8000, -77.247
 981.9000, -83.281
 982.0000, -76.291
 982.1000, -77.520
 982.2000, -75.056
 982.3000, -77.148
 982.4000, -80.138
 982.5000, -78.428
 982.6000, -79.087
 982.7000, -78.116
 982.8000, -77.426
 982.9000, -77.702
 983.0000, -76.597
 983.1000, -78.279
 983.2000, -78.163
 983.3000, -77.207
 983.4000, -78.508
 983.5000, -76.823
 983.6000, -76.915
 983.7000, -76.302
 983.8000, -77.003
 983.9000, -77.448
 984.0000, -75.351
 984.1000, -76.273
 984.2000, -77.217
 984.3000, -80.378
 984.4000, -76.612
 984.5000, -79.662
 984.6000, -76.886
 984.7000, -78.022
 984.8000, -76.702
 984.9000, -76.949
 985.0000, -80.430
 985.1000, -75.350
 985.2000, -80.502
 985.3000, -77.091
 985.4000, -77.569
 985.5000, -77.797
 985.6000, -76.646
 985.7000, -77.174
 985.8000, -78.316
 985.9000, -76.501
 986.0000, -76.912
 986.1000,-210.000
 986.2000, -78.113
 986.3000, -77.436
 986.4000, -76.305
 986.5000, -78.764
 986.6000, -78.846
 986.7000, -76.668
 986.8000, -78.469
 986.9000, -76.672
 987.0000, -77.082
 987.1000, -78.715
 987.2000, -77.232
 987.3000, -76.935
 987.4000, -77.990
 987.5000, -76.425
 987.6000, -78.138
 987.7000, -78.363
 987.8000, -77.736
 987.9000, -78.459
 988.0000, -77.076
 988.1000, -76.870
 988.2000, -76.203
 988.3000, -78.559
 988.4000, -74.486
 988.5000, -76.773
 988.6000, -79.897
 988.7000, -80.508
 988.8000, -78.624
 988.9000, -76.260
 989.0000, -82.067
 989.1000, -75.990
 989.2000, -84.581
 989.3000, -78.144
 989.4000, -76.386
 989.5000, -78.852
 989.6000, -77.920
 989.7000, -77.296
 989.8000, -77.570
 989.9000, -78.991
 990.0000, -78.811
 990.1000, -77.597
 990.2000, -77.147
 990.3000, -79.648
 990.4000, -76.733
 990.5000, -77.654
 990.6000, -77.055
 990.7000, -76.696
 990.8000, -77.781
 990.9000, -80.136
 991.0000, -77.466
 991.1000, -77.962
 991.2000, -77.253
 991.3000, -77.180
 991.4000, -75.479
 991.5000, -82.481
 991.6000, -76.620
 991.7000, -79.550
 991.8000, -78.132
 991.9000, -78.681
 992.0000, -78.450
 992.1000, -77.373
 992.2000, -76.119
 992.3000, -77.750
 992.4000, -83.006
 992.5000, -78.786
 992.6000, -78.268
 992.7000, -79.135
 992.8000, -77.886
 992.9000, -76.734
 993.0000, -78.459
 993.1000, -78.750
 993.2000, -76.980
 993.3000, -79.404
 993.4000, -77.877
 993.5000, -79.858
 993.6000, -79.026
 993.7000, -75.832
 993.8000, -78.276
 993.9000, -78.599
 994.0000, -79.429
 994.1000, -79.951
 994.2000, -77.473
 994.3000, -77.219
 994.4000, -77.300
 994.5000, -77.354
 994.6000, -79.706
 994.7000, -78.753
 994.8000, -78.490
 994.9000, -77.288
 995.0000, -78.474
 995.1000, -78.877
 995.2000, -77.897
 995.3000, -76.460
 995.4000, -80.408
 995.5000, -79.244
 995.6000, -77.157
 995.7000, -78.799
 995.8000, -75.285
 995.9000, -78.185
 996.0000,-210.000
 996.1000, -75.021
 996.2000,-210.000
 996.3000, -77.723
 996.4000, -77.119
 996.5000, -77.395
 996.6000, -76.442
 996.7000, -86.524
 996.8000, -77.548
 996.9000, -79.621
 997.0000, -77.877
 997.1000, -79.338
 997.2000, -77.728
 997.3000, -79.900
 997.4000, -76.400
 997.5000, -79.570
 997.6000, -77.811
 997.7000, -77.767
 997.8000, -80.070
 997.9000, -75.920
 998.0000, -78.282
 998.1000, -77.894
 998.2000, -77.306
 998.3000, -87.305
 998.4000, -79.429
 998.5000, -79.609
 998.6000, -79.504
 998.7000, -76.770
 998.8000, -78.862
 998.9000, -77.545
 999.0000, -77.330
 999.1000, -78.052
 999.2000, -77.293
 999.3000, -78.121
 999.4000, -77.810
 999.5000, -78.849
 999.6000, -78.007
 999.7000, -77.954
 999.8000, -76.476
 999.9000, -80.522
1000.0000, -78.206
1000.1000, -78.632
1000.2000, -77.095
1000.3000, -79.328
1000.4000, -78.430
1000.5000, -79.944
1000.6000, -78.592
1000.7000, -79.856
1000.8000, -76.504
1000.9000, -80.243
1001.0000, -78.357
1001.1000, -78.280
1001.2000, -77.505
1001.3000, -77.781
1001.4000, -80.263
1001.5000, -78.280
1001.6000, -78.650
1001.7000, -79.120
1001.8000, -77.180
1001.9000, -78.298
1002.0000, -76.934
1002.1000, -78.152
1002.2000, -80.768
1002.3000, -79.374
1002.4000, -78.257
1002.5000, -79.861
1002.6000, -77.327
1002.7000, -77.214
1002.8000, -76.433
1002.9000, -80.614
1003.0000, -78.104
1003.1000, -77.891
1003.2000, -76.994
1003.3000, -81.225
1003.4000, -77.417
1003.5000, -75.549
1003.6000, -81.519
1003.7000, -80.166
1003.8000, -77.926
1003.9000, -78.511
1004.0000, -76.481
1004.1000, -77.103
1004.2000, -81.018
1004.3000, -78.617
1004.4000, -75.376
1004.5000, -93.155
1004.6000, -78.227
1004.7000, -79.747
1004.8000, -78.123
1004.9000, -78.018
1005.0000, -78.872
1005.1000, -78.187
1005.2000, -78.757
1005.3000, -78.001
1005.4000, -78.789
1005.5000, -78.439
1005.6000, -78.771
1005.7000, -77.800
1005.8000, -76.939
1005.9000, -77.948
1006.0000, -78.487
1006.1000, -78.724
1006.2000, -79.016
1006.3000, -78.136
1006.4000, -77.974
1006.5000, -78.764
1006.6000, -77.999
1006.7000, -77.500
1006.8000, -78.807
1006.9000, -78.576
1007.0000, -77.073
1007.1000, -78.641
1007.2000, -78.334
1007.3000, -79.213
1007.4000, -76.328
1007.5000, -80.071
1007.6000, -76.196
1007.7000, -80.072
1007.8000, -77.486
1007.9000, -79.032
1008.0000, -78.108
1008.1000, -76.776
1008.2000, -77.803
1008.3000, -78.988
1008.4000, -77.677
1008.5000, -76.800
1008.6000, -78.053
1008.7000, -85.739
1008.8000, -77.500
1008.9000, -79.585
1009.0000, -77.000
1009.1000, -76.758
1009.2000, -79.018
1009.3000, -80.194
1009.4000, -77.157
1009.5000, -78.884
1009.6000, -78.240
1009.7000, -77.043
1009.8000, -78.891
1009.9000, -76.019
1010.0000, -79.665
1010.1000, -77.797
1010.2000, -78.691
1010.3000, -79.120
1010.4000, -81.484
1010.5000, -75.962
1010.6000, -77.500
1010.7000, -77.723
1010.8000, -77.914
1010.9000, -76.552
1011.0000, -81.082
1011.1000, -80.006
1011.2000, -77.893
1011.3000, -76.552
1011.4000, -77.825
1011.5000, -77.959
1011.6000, -79.374
1011.7000, -77.419
1011.8000, -78.085
1011.9000, -77.548
1012.0000, -78.701
1012.1000, -78.038
1012.2000, -77.427
1012.3000, -76.756
1012.4000, -78.218
1012.5000, -76.194
1012.6000, -82.305
1012.7000, -78.513
1012.8000, -77.955
1012.9000, -78.975
1013.0000, -79.298
1013.1000, -76.679
1013.2000, -78.421
1013.3000, -79.233
1013.4000, -77.905
1013.5000, -77.877
1013.6000, -77.118
1013.7000, -78.947
1013.8000, -77.237
1013.9000, -77.775
1014.0000, -76.922
1014.1000, -79.318
1014.2000, -78.041
1014.3000, -78.974
1014.4000, -77.895
1014.5000, -78.849
1014.6000, -77.426
1014.7000, -77.843
1014.8000, -76.838
1014.9000, -78.803
1015.0000, -77.820
1015.1000, -78.945
1015.2000, -77.148
1015.3000, -78.619
1015.4000, -77.130
1015.5000, -76.927
1015.6000, -77.704
1015.7000, -77.096
1015.8000, -78.467
1015.9000, -79.125
1016.0000, -78.115
1016.1000, -77.472
1016.2000, -77.534
1016.3000, -78.592
1016.4000, -76.784
1016.5000, -75.242
1016.6000, -77.997
1016.7000, -80.011
1016.8000, -78.006
1016.9000, -79.741
1017.0000, -75.806
1017.1000, -79.579
1017.2000, -75.932
1017.3000, -77.256
1017.4000, -77.774
1017.5000, -77.238
1017.6000, -78.440
1017.7000, -77.923
1017.8000, -77.523
1017.9000, -78.339
1018.0000, -81.941
1018.1000, -78.601
1018.2000, -78.307
1018.3000, -78.058
1018.4000, -78.488
1018.5000, -78.147
1018.6000, -76.659
1018.7000, -77.933
1018.8000, -78.583
1018.9000, -76.919
1019.0000, -77.201
1019.1000, -78.938
1019.2000, -77.146
1019.3000, -79.625
1019.4000, -77.463
1019.5000, -77.287
1019.6000, -78.611
1019.7000, -76.960
1019.8000, -76.913
1019.9000, -76.892
1020.0000, -77.604
1020.1000, -78.792
1020.2000, -78.171
1020.3000, -76.479
1020.4000, -77.652
1020.5000, -77.325
1020.6000, -77.335
1020.7000, -78.920
1020.8000, -76.639
1020.9000, -77.847
1021.0000, -77.772
1021.1000, -76.158
1021.2000, -80.131
1021.3000, -77.315
1021.4000, -77.222
1021.5000, -76.848
1021.6000, -77.763
1021.7000, -78.825
1021.8000, -77.689
1021.9000, -78.105
1022.0000, -77.255
1022.1000, -78.128
1022.2000, -75.773
1022.3000, -78.178
1022.4000, -77.768
1022.5000, -76.684
1022.6000, -77.555
1022.7000, -79.106
1022.8000, -78.022
1022.9000, -77.241
1023.0000, -74.774
1023.1000, -77.318
1023.2000, -77.338
1023.3000, -77.215
1023.4000, -80.459
1023.5000, -78.441
1023.6000, -77.171
1023.7000, -77.160
1023.8000, -78.313
1023.9000, -79.219
1024.0000, -77.262
1024.1000, -77.448
1024.2000, -76.602
1024.3000, -77.266
1024.4000, -79.339
1024.5000, -77.682
1024.6000, -76.531
1024.7000, -79.551
1024.8000, -75.056
1024.9000, -79.666
1025.0000, -74.440
1025.1000, -76.941
1025.2000, -77.281
1025.3000, -77.193
1025.4000, -75.112
1025.5000, -84.129
1025.6000, -83.134
1025.7000, -75.143
1025.8000, -85.687
1025.9000, -78.992
1026.0000, -75.707
1026.1000, -79.924
1026.2000, -76.851
1026.3000, -78.099
1026.4000, -75.644
1026.5000, -77.056
1026.6000, -76.224
1026.7000, -78.567
1026.8000, -74.925
1026.9000,-210.000
1027.0000, -78.036
1027.1000, -76.678
1027.2000, -77.981
1027.3000, -76.725
1027.4000, -77.369
1027.5000, -77.042
1027.6000, -77.466
1027.7000, -77.651
1027.8000, -76.728
1027.9000, -78.052
1028.0000, -76.163
1028.1000, -76.749
1028.2000, -76.462
1028.3000, -78.077
1028.4000, -77.031
1028.5000, -76.092
1028.6000, -80.603
1028.7000, -79.373
1028.8000, -76.334
1028.9000, -78.201
1029.0000, -76.513
1029.1000, -78.046
1029.2000, -78.191
1029.3000, -77.052
1029.4000, -77.117
1029.5000, -77.444
1029.6000, -76.725
1029.7000, -77.194
1029.8000, -77.011
1029.9000, -77.019
1030.0000, -78.413
1030.1000, -77.504
1030.2000, -75.468
1030.3000, -78.780
1030.4000, -77.834
1030.5000, -76.603
1030.6000, -77.384
1030.7000, -77.436
1030.8000, -77.580
1030.9000, -77.407
1031.0000, -77.276
1031.1000, -77.405
1031.2000, -77.018
1031.3000, -77.280
1031.4000, -78.392
1031.5000, -77.045
1031.6000, -77.136
1031.7000, -77.109
1031.8000, -76.717
1031.9000, -77.538
1032.0000, -77.890
1032.1000, -76.444
1032.2000, -76.827
1032.3000, -76.455
1032.4000, -78.358
1032.5000, -76.828
1032.6000, -75.555
1032.7000, -78.652
1032.8000, -76.142
1032.9000, -76.294
1033.0000, -78.870
1033.1000, -78.289
1033.2000, -77.593
1033.3000, -75.931
1033.4000, -77.484
1033.5000, -77.685
1033.6000, -77.491
1033.7000, -75.318
1033.8000, -76.729
1033.9000, -77.946
1034.0000, -77.185
1034.1000, -78.019
1034.2000, -76.182
1034.3000, -78.145
1034.4000, -77.434
1034.5000, -77.846
1034.6000, -76.679
1034.7000, -76.892
1034.8000, -77.658
1034.9000, -75.960
1035.0000, -76.859
1035.1000, -77.181
1035.2000, -78.373
1035.3000, -78.158
1035.4000, -78.942
1035.5000, -77.862
1035.6000, -76.221
1035.7000, -77.797
1035.8000, -77.403
1035.9000, -77.026
1036.0000, -75.822
1036.1000, -77.181
1036.2000, -76.943
1036.3000, -76.752
1036.4000, -78.721
1036.5000, -77.907
1036.6000, -77.151
1036.7000, -77.204
1036.8000, -78.324
1036.9000, -76.869
1037.0000, -77.263
1037.1000, -77.377
1037.2000, -78.241
1037.3000, -76.050
1037.4000, -76.520
1037.5000, -77.230
1037.6000, -76.306
1037.7000, -78.698
1037.8000, -76.131
1037.9000, -78.951
1038.0000, -76.498
1038.1000, -76.868
1038.2000, -77.633
1038.3000, -77.384
1038.4000, -76.177
1038.5000, -77.743
1038.6000, -77.249
1038.7000, -76.941
1038.8000, -78.360
1038.9000, -76.128
1039.0000, -77.891
1039.1000, -77.038
1039.2000, -76.587
1039.3000, -75.882
1039.4000, -76.177
1039.5000, -76.711
1039.6000, -76.735
1039.7000, -76.434
1039.8000, -77.680
1039.9000, -78.564
1040.0000, -76.827
1040.1000, -78.182
1040.2000, -77.207
1040.3000, -76.902
1040.4000, -77.513
1040.5000, -78.708
1040.6000, -78.720
1040.7000, -75.800
1040.8000, -78.364
1040.9000, -77.120
1041.0000, -76.302
1041.1000, -77.027
1041.2000, -76.943
1041.3000, -77.284
1041.4000, -77.871
1041.5000, -77.172
1041.6000, -76.216
1041.7000, -77.177
1041.8000, -76.077
1041.9000, -78.375
1042.0000, -78.155
1042.1000, -76.302
1042.2000, -77.993
1042.3000, -76.330
1042.4000, -76.994
1042.5000, -74.953
1042.6000, -77.944
1042.7000, -76.048
1042.8000, -79.476
1042.9000, -78.006
1043.0000, -76.329
1043.1000, -75.942
1043.2000, -77.332
1043.3000, -77.919
1043.4000, -76.260
1043.5000, -77.514
1043.6000, -77.894
1043.7000, -76.068
1043.8000, -76.082
1043.9000, -76.108
1044.0000, -76.303
1044.1000, -77.013
1044.2000, -76.296
1044.3000, -76.541
1044.4000, -75.428
1044.5000, -75.486
1044.6000, -74.480
1044.7000, -74.412
1044.8000, -74.680
1044.9000, -73.665
1045.0000, -73.927
1045.1000, -71.985
1045.2000, -72.665
1045.3000, -71.830
1045.4000, -71.473
1045.5000, -71.484
1045.6000, -70.998
1045.7000, -71.760
1045.8000, -72.054
1045.9000, -72.921
1046.0000, -74.203
1046.1000, -74.022
1046.2000, -74.000
1046.3000, -74.613
1046.4000, -74.475
1046.5000, -74.925
1046.6000, -75.790
1046.7000, -76.202
1046.8000, -75.893
1046.9000, -75.237
1047.0000, -75.903
1047.1000, -76.849
1047.2000, -75.698
1047.3000, -76.878
1047.4000, -76.376
1047.5000, -76.349
1047.6000, -75.290
1047.7000, -77.217
1047.8000, -75.619
1047.9000, -75.169
1048.0000, -76.313
1048.1000, -76.783
1048.2000, -76.184
1048.3000, -77.094
1048.4000, -76.203
1048.5000, -76.786
1048.6000, -76.026
1048.7000, -76.783
1048.8000, -75.226
1048.9000, -75.946
1049.0000, -76.017
1049.1000, -75.821
1049.2000, -76.518
1049.3000, -75.502
1049.4000, -77.254
1049.5000, -76.243
1049.6000, -75.919
1049.7000, -75.473
1049.8000, -75.660
1049.9000, -75.535
1050.0000, -75.678
1050.1000, -75.857
1050.2000, -74.987
1050.3000, -75.212
1050.4000, -76.045
1050.5000, -74.198
1050.6000, -76.417
1050.7000, -76.996
1050.8000, -74.693
1050.9000, -74.729
1051.0000, -74.541
1051.1000, -74.313
1051.2000, -74.643
1051.3000, -74.240
1051.4000, -74.328
1051.5000, -74.206
1051.6000, -72.799
1051.7000, -73.349
1051.8000, -72.190
1051.9000, -71.735
1052.0000, -71.476
1052.1000, -70.858
1052.2000, -69.864
1052.3000, -68.902
1052.4000, -68.577
1052.5000, -68.382
1052.6000, -68.114
1052.7000, -67.451
1052.8000, -67.059
1052.9000, -66.571
1053.0000, -66.094
1053.1000, -65.610
1053.2000, -64.723
1053.3000, -63.509
1053.4000, -62.808
1053.5000, -61.154
1053.6000, -59.289
1053.7000, -57.652
1053.8000, -55.876
1053.9000, -54.024
1054.0000, -52.290
1054.1000, -50.852
1054.2000, -49.913
1054.3000, -48.846
1054.4000, -48.342
1054.5000, -48.104
1054.6000, -47.941
1054.7000, -47.960
1054.8000, -48.116
1054.9000, -48.704
1055.0000, -49.349
1055.1000, -50.226
1055.2000, -50.970
1055.3000, -52.061
1055.4000, -53.306
1055.5000, -54.578
1055.6000, -55.854
1055.7000, -56.612
1055.8000, -57.771
1055.9000, -58.310
1056.0000, -58.884
1056.1000, -58.983
1056.2000, -59.037
1056.3000, -58.684
1056.4000, -58.873
1056.5000, -58.533
1056.6000, -59.010
1056.7000, -59.207
1056.8000, -60.016
1056.9000, -61.137
1057.0000, -62.199
1057.1000, -63.113
1057.2000, -63.380
1057.3000, -63.358
1057.4000, -63.163
1057.5000, -63.053
1057.6000, -62.870
1057.7000, -62.616
1057.8000, -62.274
1057.9000, -61.931
1058.0000, -61.606
1058.1000, -61.143
1058.2000, -60.683
1058.3000, -60.396
1058.4000, -59.818
1058.5000, -59.325
1058.6000, -58.958
1058.7000, -58.616
1058.8000, -57.973
1058.9000, -57.511
1059.0000, -57.076
1059.1000, -56.781
1059.2000, -56.324
1059.3000, -55.731
1059.4000, -55.282
1059.5000, -54.807
1059.6000, -54.586
1059.7000, -54.082
1059.8000, -53.748
1059.9000, -53.241
1060.0000, -52.844
1060.1000, -52.419
1060.2000, -52.145
1060.3000, -51.621
1060.4000, -51.258
1060.5000, -50.954
1060.6000, -50.405
1060.7000, -49.802
1060.8000, -49.300
1060.9000, -48.794
1061.0000, -48.077
1061.1000, -47.391
1061.2000, -46.823
1061.3000, -46.447
1061.4000, -45.947
1061.5000, -45.523
1061.6000, -45.224
1061.7000, -45.061
1061.8000, -44.890
1061.9000, -44.534
1062.0000, -44.031
1062.1000, -43.455
1062.2000, -43.244
1062.3000, -42.454
1062.4000, -42.101
1062.5000, -41.466
1062.6000, -40.807
1062.7000, -40.294
1062.8000, -40.130
1062.9000, -39.798
1063.0000, -39.054
1063.1000, -38.524
1063.2000, -38.346
1063.3000, -38.108
1063.4000, -37.318
1063.5000, -36.721
1063.6000, -35.386
1063.7000, -31.361
1063.8000, -26.685
1063.9000, -24.807
1064.0000, -23.778
1064.1000, -22.745
1064.2000, -22.109
1064.3000, -20.261
1064.4000, -16.960
1064.5000, -16.447
1064.6000, -16.682
1064.7000, -16.884
1064.8000, -17.121
1064.9000, -17.292
1065.0000, -17.882
1065.1000, -21.967
1065.2000, -33.230
1065.3000, -36.925
1065.4000, -38.133
1065.5000, -39.160
1065.6000, -40.006
1065.7000, -40.820
1065.8000, -41.379
1065.9000, -41.940
1066.0000, -42.532
1066.1000, -42.879
1066.2000, -43.135
1066.3000, -43.364
1066.4000, -43.444
1066.5000, -43.406
1066.6000, -43.345
1066.7000, -43.157
1066.8000, -43.021
1066.9000, -42.787
1067.0000, -42.564
1067.1000, -42.336
1067.2000, -41.977
1067.3000, -41.746
1067.4000, -41.539
1067.5000, -41.180
1067.6000, -40.911
1067.7000, -40.472
1067.8000, -40.203
1067.9000, -39.889
1068.0000, -39.604
1068.1000, -39.316
1068.2000, -39.016
1068.3000, -38.742
1068.4000, -38.338
1068.5000, -37.971
1068.6000, -37.714
1068.7000, -37.356
1068.8000, -37.010
1068.9000, -36.719
1069.0000, -36.342
1069.1000, -36.033
1069.2000, -35.855
1069.3000, -35.368
1069.4000, -34.989
1069.5000, -34.685
1069.6000, -34.362
1069.7000, -34.046
1069.8000, -33.658
1069.9000, -33.243
1070.0000, -33.013
1070.1000, -32.571
1070.2000, -32.331
1070.3000, -31.978
1070.4000, -31.605
1070.5000, -31.172
1070.6000, -30.955
1070.7000, -30.440
1070.8000, -30.182
1070.9000, -29.766
1071.0000, -29.473
1071.1000, -29.120
1071.2000, -28.827
1071.3000, -28.385
1071.4000, -27.939
1071.5000, -27.678
1071.6000, -27.268
1071.7000, -26.784
1071.8000, -26.407
1071.9000, -26.071
1072.0000, -25.701
1072.1000, -25.301
1072.2000, -24.844
1072.3000, -24.399
1072.4000, -23.944
1072.5000, -23.639
1072.6000, -23.122
1072.7000, -22.757
1072.8000, -22.410
1072.9000, -22.020
1073.0000, -21.581
1073.1000, -21.232
1073.2000, -20.967
1073.3000, -20.600
1073.4000, -20.338
1073.5000, -20.200
1073.6000, -19.922
1073.7000, -19.592
1073.8000, -19.313
1073.9000, -19.089
1074.0000, -18.753
1074.1000, -18.512
1074.2000, -18.252
1074.3000, -18.098
1074.4000, -18.010
1074.5000, -17.927
1074.6000, -17.872
1074.7000, -17.830
1074.8000, -17.700
1074.9000, -17.766
1075.0000, -17.505
1075.1000, -17.205
1075.2000, -16.941
1075.3000, -16.688
1075.4000, -16.293
1075.5000, -15.951
1075.6000, -15.730
1075.7000, -15.409
1075.8000, -15.069
1075.9000, -14.899
1076.0000, -14.736
1076.1000, -14.621
1076.2000, -14.537
1076.3000, -14.616
1076.4000, -14.609
1076.5000, -14.790
1076.6000, -14.934
1076.7000, -15.249
1076.8000, -15.538
1076.9000, -15.752
1077.0000, -16.107
1077.1000, -16.358
1077.2000, -16.714
1077.3000, -16.927
1077.4000, -17.289
1077.5000, -17.498
1077.6000, -17.718
1077.7000, -17.939
1077.8000, -18.152
1077.9000, -18.334
1078.0000, -18.609
1078.1000, -18.760
1078.2000, -18.975
1078.3000, -19.072
1078.4000, -19.319
1078.5000, -19.444
1078.6000, -19.631
1078.7000, -19.839
1078.8000, -20.018
1078.9000, -20.193
1079.0000, -20.356
1079.1000, -20.542
1079.2000, -20.780
1079.3000, -20.970
1079.4000, -21.046
1079.5000, -21.191
1079.6000, -21.274
1079.7000, -21.397
1079.8000, -21.537
1079.9000, -21.624
1080.0000, -21.743
1080.1000, -21.882
1080.2000, -21.925
1080.3000, -21.993
1080.4000, -22.106
1080.5000, -22.146
1080.6000, -22.255
1080.7000, -22.169
1080.8000, -22.274
1080.9000, -22.294
1081.0000, -22.293
1081.1000, -22.335
1081.2000, -22.356
1081.3000, -22.429
1081.4000, -22.471
1081.5000, -22.434
1081.6000, -22.531
1081.7000, -22.529
1081.8000, -22.438
1081.9000, -22.388
1082.0000, -22.453
1082.1000, -22.514
1082.2000, -22.374
1082.3000, -22.380
1082.4000, -22.440
1082.5000, -22.360
1082.6000, -22.346
1082.7000, -22.390
1082.8000, -22.248
1082.9000, -22.260
1083.0000, -22.304
1083.1000, -22.176
1083.2000, -22.081
1083.3000, -22.100
1083.4000, -21.947
1083.5000, -21.973
1083.6000, -21.862
1083.7000, -21.718
1083.8000, -21.706
1083.9000, -21.590
1084.0000, -21.462
1084.1000, -21.334
1084.2000, -21.217
1084.3000, -21.102
1084.4000, -20.931
1084.5000, -20.789
1084.6000, -20.737
1084.7000, -20.644
1084.8000, -20.573
1084.9000, -20.549
1085.0000, -20.655
1085.1000, -20.692
1085.2000, -20.747
1085.3000, -21.090
1085.4000, -21.224
1085.5000, -21.497
1085.6000, -21.687
1085.7000, -21.896
1085.8000, -22.209
1085.9000, -22.511
1086.0000, -22.738
1086.1000, -23.007
1086.2000, -23.294
1086.3000, -23.485
1086.4000, -23.678
1086.5000, -23.872
1086.6000, -24.090
1086.7000, -24.219
1086.8000, -24.382
1086.9000, -24.767
1087.0000, -24.870
1087.1000, -24.982
1087.2000, -25.222
1087.3000, -25.315
1087.4000, -25.431
1087.5000, -25.569
1087.6000, -25.748
1087.7000, -25.936
1087.8000, -26.163
1087.9000, -26.371
1088.0000, -26.471
1088.1000, -26.687
1088.2000, -26.943
1088.3000, -26.891
1088.4000, -27.011
1088.5000, -27.304
1088.6000, -27.553
1088.7000, -27.708
1088.8000, -27.860
1088.9000, -28.026
1089.0000, -28.071
1089.1000, -28.437
1089.2000, -28.483
1089.3000, -28.656
1089.4000, -28.800
1089.5000, -28.959
1089.6000, -29.206
1089.7000, -29.438
1089.8000, -29.430
1089.9000, -29.686
1090.0000, -29.757
1090.1000, -29.894
1090.2000, -30.091
1090.3000, -30.226
1090.4000, -30.377
1090.5000, -30.486
1090.6000, -30.782
1090.7000, -30.912
1090.8000, -31.107
1090.9000, -31.154
1091.0000, -31.401
1091.1000, -31.693
1091.2000, -31.863
1091.3000, -31.999
1091.4000, -32.104
1091.5000, -32.344
1091.6000, -32.459
1091.7000, -32.683
1091.8000, -32.890
1091.9000, -32.937
1092.0000, -33.456
1092.1000, -33.467
1092.2000, -33.704
1092.3000, -33.973
1092.4000, -34.203
1092.5000, -34.391
1092.6000, -34.731
1092.7000, -34.766
1092.8000, -34.981
1092.9000, -35.246
1093.0000, -35.369
1093.1000, -35.561
1093.2000, -35.807
1093.3000, -35.784
1093.4000, -36.202
1093.5000, -36.446
1093.6000, -36.505
1093.7000, -36.694
1093.8000, -36.882
1093.9000, -37.049
1094.0000, -37.217
1094.1000, -37.202
1094.2000, -37.460
1094.3000, -37.601
1094.4000, -37.751
1094.5000, -37.892
1094.6000, -38.050
1094.7000, -38.063
1094.8000, -38.355
1094.9000, -38.583
1095.0000, -38.702
1095.1000, -38.878
1095.2000, -39.159
1095.3000, -39.446
1095.4000, -39.638
1095.5000, -40.035
1095.6000, -40.221
1095.7000, -40.319
1095.8000, -40.648
1095.9000, -40.901
1096.0000, -41.120
1096.1000, -41.276
1096.2000, -41.432
1096.3000, -41.776
1096.4000, -41.745
1096.5000, -42.120
1096.6000, -42.324
1096.7000, -42.508
1096.8000, -42.729
1096.9000, -42.724
1097.0000, -42.912
1097.1000, -43.178
1097.2000, -43.380
1097.3000, -43.483
1097.4000, -43.711
1097.5000, -43.731
1097.6000, -43.990
1097.7000, -44.056
1097.8000, -44.136
1097.9000, -44.270
1098.0000, -44.306
1098.1000, -44.485
1098.2000, -44.642
1098.3000, -44.572
1098.4000, -44.652
1098.5000, -44.852
1098.6000, -44.979
1098.7000, -44.908
1098.8000, -44.976
1098.9000, -45.040
1099.0000, -44.988
1099.1000, -45.158
1099.2000, -45.218
1099.3000, -45.200
1099.4000, -45.269
1099.5000, -45.344
1099.6000, -45.249
1099.7000, -45.303
1099.8000, -45.282
1099.9000, -45.301
1100.0000, -45.348
1100.1000, -45.212
1100.2000, -45.228
1100.3000, -45.248
1100.4000, -45.277
1100.5000, -45.222
1100.6000, -45.175
1100.7000, -45.119
1100.8000, -45.002
1100.9000, -45.163
1101.0000, -44.943
1101.1000, -45.008
1101.2000, -44.901
1101.3000, -44.817
1101.4000, -44.893
1101.5000, -44.720
1101.6000, -44.680
1101.7000, -44.623
1101.8000, -44.564
1101.9000, -44.490
1102.0000, -44.393
1102.1000, -44.411
1102.2000, -44.266
1102.3000, -44.280
1102.4000, -44.111
1102.5000, -44.035
1102.6000, -43.918
1102.7000, -43.896
1102.8000, -43.810
1102.9000, -43.697
1103.0000, -43.556
1103.1000, -43.497
1103.2000, -43.374
1103.3000, -43.244
1103.4000, -43.128
1103.5000, -43.026
1103.6000, -42.904
1103.7000, -42.826
1103.8000, -42.670
1103.9000, -42.555
1104.0000, -42.516
1104.1000, -42.404
1104.2000, -42.257
1104.3000, -42.162
1104.4000, -42.050
1104.5000, -41.946
1104.6000, -41.820
1104.7000, -41.624
1104.8000, -41.601
1104.9000, -41.456
1105.0000, -41.304
1105.1000, -41.136
1105.2000, -41.122
1105.3000, -40.951
1105.4000, -40.712
1105.5000, -40.630
1105.6000, -40.472
1105.7000, -40.372
1105.8000, -40.217
1105.9000, -40.106
1106.0000, -39.940
1106.1000, -39.791
1106.2000, -39.634
1106.3000, -39.514
1106.4000, -39.391
1106.5000, -39.226
1106.6000, -39.066
1106.7000, -38.942
1106.8000, -38.742
1106.9000, -38.662
1107.0000, -38.434
1107.1000, -38.322
1107.2000, -38.188
1107.3000, -37.989
1107.4000, -37.832
1107.5000, -37.676
1107.6000, -37.512
1107.7000, -37.405
1107.8000, -37.275
1107.9000, -37.060
1108.0000, -36.940
1108.1000, -36.792
1108.2000, -36.584
1108.3000, -36.499
1108.4000, -36.410
1108.5000, -36.207
1108.6000, -36.020
1108.7000, -35.861
1108.8000, -35.715
1108.9000, -35.527
1109.0000, -35.413
1109.1000, -35.281
1109.2000, -35.122
1109.3000, -34.981
1109.4000, -34.870
1109.5000, -34.674
1109.6000, -34.487
1109.7000, -34.297
1109.8000, -34.134
1109.9000, -33.974
1110.0000, -33.820
1110.1000, -33.698
1110.2000, -33.501
1110.3000, -33.333
1110.4000, -33.188
1110.5000, -33.019
1110.6000, -32.811
1110.7000, -32.768
1110.8000, -32.561
1110.9000, -32.396
1111.0000, -32.145
1111.1000, -31.999
1111.2000, -31.864
1111.3000, -31.691
1111.4000, -31.466
1111.5000, -31.355
1111.6000, -31.111
1111.7000, -30.907
1111.8000, -30.733
1111.9000, -30.598
1112.0000, -30.530
1112.1000, -30.221
1112.2000, -30.031
1112.3000, -29.927
1112.4000, -29.733
1112.5000, -29.552
1112.6000, -29.410
1112.7000, -29.212
1112.8000, -29.005
1112.9000, -28.904
1113.0000, -28.690
1113.1000, -28.466
1113.2000, -28.394
1113.3000, -28.187
1113.4000, -27.918
1113.5000, -27.900
1113.6000, -27.688
1113.7000, -27.475
1113.8000, -27.334
1113.9000, -27.124
1114.0000, -26.929
1114.1000, -26.741
1114.2000, -26.551
1114.3000, -26.430
1114.4000, -26.273
1114.5000, -26.089
1114.6000, -25.923
1114.7000, -25.736
1114.8000, -25.549
1114.9000, -25.402
1115.0000, -25.191
1115.1000, -25.071
1115.2000, -24.912
1115.3000, -24.700
1115.4000, -24.568
1115.5000, -24.369
1115.6000, -24.173
1115.7000, -24.023
1115.8000, -23.864
1115.9000, -23.679
1116.0000, -23.581
1116.1000, -23.346
1116.2000, -23.323
1116.3000, -23.151
1116.4000, -22.988
1116.5000, -22.868
1116.6000, -22.671
1116.7000, -22.590
1116.8000, -22.486
1116.9000, -22.355
1117.0000, -22.150
1117.1000, -21.984
1117.2000, -21.928
1117.3000, -21.791
1117.4000, -21.737
1117.5000, -21.611
1117.6000, -21.491
1117.7000, -21.370
1117.8000, -21.301
1117.9000, -21.190
1118.0000, -21.100
1118.1000, -21.052
1118.2000, -20.933
1118.3000, -20.845
1118.4000, -20.799
1118.5000, -20.731
1118.6000, -20.648
1118.7000, -20.605
1118.8000, -20.496
1118.9000, -20.398
1119.0000, -20.336
1119.1000, -20.278
1119.2000, -20.188
1119.3000, -20.155
1119.4000, -20.011
1119.5000, -19.939
1119.6000, -19.905
1119.7000, -19.797
1119.8000, -19.700
1119.9000, -19.660
1120.0000, -19.598
1120.1000, -19.523
1120.2000, -19.384
1120.3000, -19.325
1120.4000, -19.209
1120.5000, -19.056
1120.6000, -18.896
1120.7000, -18.867
1120.8000, -18.644
1120.9000, -18.496
1121.0000, -18.372
1121.1000, -18.215
1121.2000, -18.014
1121.3000, -17.843
1121.4000, -17.720
1121.5000, -17.571
1121.6000, -17.398
1121.7000, -17.227
1121.8000, -17.092
1121.9000, -16.887
1122.0000, -16.808
1122.1000, -16.633
1122.2000, -16.544
1122.3000, -16.460
1122.4000, -16.313
1122.5000, -16.231
1122.6000, -16.162
1122.7000, -16.137
1122.8000, -16.060
1122.9000, -16.052
1123.0000, -16.040
1123.1000, -16.013
1123.2000, -16.038
1123.3000, -16.099
1123.4000, -16.195
1123.5000, -16.240
1123.6000, -16.364
1123.7000, -16.398
1123.8000, -16.562
1123.9000, -16.632
1124.0000, -16.755
1124.1000, -16.860
1124.2000, -17.053
1124.3000, -17.150
1124.4000, -17.275
1124.5000, -17.471
1124.6000, -17.574
1124.7000, -17.776
1124.8000, -17.870
1124.9000, -18.057
1125.0000, -18.188
1125.1000, -18.323
1125.2000, -18.556
1125.3000, -18.730
1125.4000, -18.878
1125.5000, -19.001
1125.6000, -19.188
1125.7000, -19.317
1125.8000, -19.405
1125.9000, -19.583
1126.0000, -19.713
1126.1000, -19.834
1126.2000, -19.946
1126.3000, -20.065
1126.4000, -20.167
1126.5000, -20.261
1126.6000, -20.389
1126.7000, -20.470
1126.8000, -20.588
1126.9000, -20.652
1127.0000, -20.784
1127.1000, -20.814
1127.2000, -20.893
1127.3000, -20.954
1127.4000, -21.013
1127.5000, -21.107
1127.6000, -21.127
1127.7000, -21.164
1127.8000, -21.220
1127.9000, -21.307
1128.0000, -21.242
1128.1000, -21.266
1128.2000, -21.322
1128.3000, -21.305
1128.4000, -21.339
1128.5000, -21.312
1128.6000, -21.330
1128.7000, -21.372
1128.8000, -21.278
1128.9000, -21.392
1129.0000, -21.352
1129.1000, -21.317
1129.2000, -21.317
1129.3000, -21.267
1129.4000, -21.327
1129.5000, -21.314
1129.6000, -21.278
1129.7000, -21.261
1129.8000, -21.274
1129.9000, -21.288
1130.0000, -21.283
1130.1000, -21.272
1130.2000, -21.273
1130.3000, -21.254
1130.4000, -21.210
1130.5000, -21.242
1130.6000, -21.266
1130.7000, -21.253
1130.8000, -21.288
1130.9000, -21.166
1131.0000, -21.226
1131.1000, -21.263
1131.2000, -21.202
1131.3000, -21.212
1131.4000, -21.208
1131.5000, -21.258
1131.6000, -21.198
1131.7000, -21.305
1131.8000, -21.231
1131.9000, -21.297
1132.0000, -21.336
1132.1000, -21.330
1132.2000, -21.249
1132.3000, -21.339
1132.4000, -21.317
1132.5000, -21.301
1132.6000, -21.422
1132.7000, -21.334
1132.8000, -21.398
1132.9000, -21.393
1133.0000, -21.355
1133.1000, -21.400
1133.2000, -21.437
1133.3000, -21.473
1133.4000, -21.457
1133.5000, -21.500
1133.6000, -21.547
1133.7000, -21.524
1133.8000, -21.539
1133.9000, -21.590
1134.0000, -21.691
1134.1000, -21.648
1134.2000, -21.727
1134.3000, -21.842
1134.4000, -21.910
1134.5000, -21.916
1134.6000, -22.047
1134.7000, -22.092
1134.8000, -22.217
1134.9000, -22.214
1135.0000, -22.281
1135.1000, -22.377
1135.2000, -22.351
1135.3000, -22.315
1135.4000, -22.351
1135.5000, -22.518
1135.6000, -22.572
1135.7000, -22.668
1135.8000, -22.807
1135.9000, -22.751
1136.0000, -22.872
1136.1000, -22.959
1136.2000, -23.031
1136.3000, -23.191
1136.4000, -23.150
1136.5000, -23.314
1136.6000, -23.377
1136.7000, -23.499
1136.8000, -23.596
1136.9000, -23.633
1137.0000, -23.698
1137.1000, -23.846
1137.2000, -23.835
1137.3000, -24.134
1137.4000, -24.097
1137.5000, -24.129
1137.6000, -24.306
1137.7000, -24.295
1137.8000, -24.461
1137.9000, -24.584
1138.0000, -24.767
1138.1000, -24.763
1138.2000, -24.800
1138.3000, -25.042
1138.4000, -25.142
1138.5000, -25.217
1138.6000, -25.387
1138.7000, -25.448
1138.8000, -25.545
1138.9000, -25.651
1139.0000, -25.845
1139.1000, -25.910
1139.2000, -25.953
1139.3000, -26.058
1139.4000, -26.243
1139.5000, -26.284
1139.6000, -26.466
1139.7000, -26.552
1139.8000, -26.676
1139.9000, -26.712
1140.0000, -26.915
1140.1000, -27.095
1140.2000, -27.097
1140.3000, -27.266
1140.4000, -27.399
1140.5000, -27.578
1140.6000, -27.640
1140.7000, -27.792
1140.8000, -27.805
1140.9000, -27.931
1141.0000, -28.094
1141.1000, -28.244
1141.2000, -28.310
1141.3000, -28.429
1141.4000, -28.587
1141.5000, -28.891
1141.6000, -28.874
1141.7000, -28.943
1141.8000, -29.149
1141.9000, -29.247
1142.0000, -29.311
1142.1000, -29.573
1142.2000, -29.692
1142.3000, -29.742
1142.4000, -29.943
1142.5000, -30.048
1142.6000, -30.187
1142.7000, -30.194
1142.8000, -30.514
1142.9000, -30.756
1143.0000, -30.828
1143.1000, -31.068
1143.2000, -31.269
1143.3000, -31.546
1143.4000, -31.420
1143.5000, -31.538
1143.6000, -31.826
1143.7000, -32.056
1143.8000, -32.190
1143.9000, -32.332
1144.0000, -32.392
1144.1000, -32.572
1144.2000, -33.020
1144.3000, -32.853
1144.4000, -32.944
1144.5000, -33.093
1144.6000, -33.221
1144.7000, -33.281
1144.8000, -33.512
1144.9000, -33.618
1145.0000, -33.708
1145.1000, -33.740
1145.2000, -34.057
1145.3000, -34.243
1145.4000, -34.438
1145.5000, -34.590
1145.6000, -34.865
1145.7000, -34.999
1145.8000, -35.185
1145.9000, -35.303
1146.0000, -35.320
1146.1000, -35.637
1146.2000, -35.655
1146.3000, -35.831
1146.4000, -36.186
1146.5000, -36.107
1146.6000, -36.339
1146.7000, -36.687
1146.8000, -36.644
1146.9000, -36.696
1147.0000, -37.045
1147.1000, -36.879
1147.2000, -37.263
1147.3000, -37.241
1147.4000, -37.634
1147.5000, -37.813
1147.6000, -37.885
1147.7000, -38.136
1147.8000, -38.087
1147.9000, -38.292
1148.0000, -38.337
1148.1000, -38.721
1148.2000, -38.667
1148.3000, -38.945
1148.4000, -39.120
1148.5000, -39.408
1148.6000, -39.462
1148.7000, -39.529
1148.8000, -39.464
1148.9000, -39.701
1149.0000, -39.860
1149.1000, -39.846
1149.2000, -40.104
1149.3000, -40.300
1149.4000, -40.272
1149.5000, -40.484
1149.6000, -40.628
1149.7000, -40.712
1149.8000, -40.965
1149.9000, -40.861
1150.0000, -41.223
1150.1000, -41.293
1150.2000, -41.456
1150.3000, -41.542
1150.4000, -41.573
1150.5000, -41.782
1150.6000, -41.932
1150.7000, -42.070
1150.8000, -42.472
1150.9000, -42.287
1151.0000, -42.721
1151.1000, -42.746
1151.2000, -42.867
1151.3000, -42.988
1151.4000, -43.030
1151.5000, -43.186
1151.6000, -43.452
1151.7000, -43.578
1151.8000, -43.580
1151.9000, -43.728
1152.0000, -43.856
1152.1000, -44.017
1152.2000, -43.971
1152.3000, -44.126
1152.4000, -44.252
1152.5000, -44.430
1152.6000, -44.377
1152.7000, -44.616
1152.8000, -44.623
1152.9000, -44.754
1153.0000, -44.692
1153.1000, -44.864
1153.2000, -44.937
1153.3000, -44.887
1153.4000, -44.881
1153.5000, -45.041
1153.6000, -45.020
1153.7000, -45.113
1153.8000, -45.125
1153.9000, -45.263
1154.0000, -45.151
1154.1000, -45.276
1154.2000, -45.234
1154.3000, -45.252
1154.4000, -45.233
1154.5000, -45.221
1154.6000, -45.245
1154.7000, -45.324
1154.8000, -45.233
1154.9000, -45.164
1155.0000, -45.183
1155.1000, -45.180
1155.2000, -45.220
1155.3000, -45.181
1155.4000, -45.145
1155.5000, -45.159
1155.6000, -45.133
1155.7000, -45.037
1155.8000, -44.991
1155.9000, -45.063
1156.0000, -44.955
1156.1000, -44.919
1156.2000, -44.822
1156.3000, -44.800
1156.4000, -44.689
1156.5000, -44.666
1156.6000, -44.621
1156.7000, -44.580
1156.8000, -44.565
1156.9000, -44.482
1157.0000, -44.366
1157.1000, -44.261
1157.2000, -44.214
1157.3000, -44.119
1157.4000, -44.265
1157.5000, -44.058
1157.6000, -44.050
1157.7000, -43.897
1157.8000, -43.829
1157.9000, -43.625
1158.0000, -43.574
1158.1000, -43.511
1158.2000, -43.463
1158.3000, -43.391
1158.4000, -43.235
1158.5000, -43.171
1158.6000, -42.983
1158.7000, -42.947
1158.8000, -42.846
1158.9000, -42.629
1159.0000, -42.547
1159.1000, -42.452
1159.2000, -42.327
1159.3000, -42.157
1159.4000, -41.979
1159.5000, -41.977
1159.6000, -41.827
1159.7000, -41.737
1159.8000, -41.517
1159.9000, -41.404
1160.0000, -41.274
1160.1000, -41.196
1160.2000, -40.960
1160.3000, -40.845
1160.4000, -40.627
1160.5000, -40.521
1160.6000, -40.405
1160.7000, -40.268
1160.8000, -40.023
1160.9000, -39.882
1161.0000, -39.688
1161.1000, -39.661
1161.2000, -39.469
1161.3000, -39.253
1161.4000, -39.168
1161.5000, -38.984
1161.6000, -38.801
1161.7000, -38.590
1161.8000, -38.475
1161.9000, -38.325
1162.0000, -38.228
1162.1000, -38.128
1162.2000, -37.928
1162.3000, -37.739
1162.4000, -37.658
1162.5000, -37.387
1162.6000, -37.319
1162.7000, -37.098
1162.8000, -37.057
1162.9000, -36.817
1163.0000, -36.690
1163.1000, -36.318
1163.2000, -36.452
1163.3000, -36.354
1163.4000, -36.260
1163.5000, -36.120
1163.6000, -36.001
1163.7000, -35.706
1163.8000, -35.631
1163.9000, -35.260
1164.0000, -35.236
1164.1000, -35.244
1164.2000, -34.791
1164.3000, -34.973
1164.4000, -34.539
1164.5000, -34.601
1164.6000, -34.413
1164.7000, -34.256
1164.8000, -34.441
1164.9000, -34.244
1165.0000, -34.230
1165.1000, -34.034
1165.2000, -33.888
1165.3000, -33.782
1165.4000, -33.386
1165.5000, -33.275
1165.6000, -33.429
1165.7000, -33.051
1165.8000, -33.009
1165.9000, -32.963
1166.0000, -32.812
1166.1000, -32.638
1166.2000, -32.596
1166.3000, -32.353
1166.4000, -32.227
1166.5000, -32.025
1166.6000, -32.027
1166.7000, -31.935
1166.8000, -31.766
1166.9000, -31.576
1167.0000, -31.464
1167.1000, -31.365
1167.2000, -31.221
1167.3000, -31.015
1167.4000, -30.874
1167.5000, -30.802
1167.6000, -30.626
1167.7000, -30.420
1167.8000, -30.380
1167.9000, -30.205
1168.0000, -30.104
1168.1000, -29.951
1168.2000, -29.856
1168.3000, -29.672
1168.4000, -29.575
1168.5000, -29.420
1168.6000, -29.277
1168.7000, -29.112
1168.8000, -29.030
1168.9000, -28.863
1169.0000, -28.716
1169.1000, -28.593
1169.2000, -28.502
1169.3000, -28.387
1169.4000, -28.217
1169.5000, -28.101
1169.6000, -27.983
1169.7000, -27.829
1169.8000, -27.746
1169.9000, -27.554
1170.0000, -27.437
1170.1000, -27.249
1170.2000, -27.116
1170.3000, -27.047
1170.4000, -26.824
1170.5000, -26.716
1170.6000, -26.589
1170.7000, -26.415
1170.8000, -26.364
1170.9000, -26.291
1171.0000, -26.113
1171.1000, -25.982
1171.2000, -25.885
1171.3000, -25.726
1171.4000, -25.577
1171.5000, -25.578
1171.6000, -25.370
1171.7000, -25.268
1171.8000, -25.153
1171.9000, -24.998
1172.0000, -24.909
1172.1000, -24.750
1172.2000, -24.674
1172.3000, -24.481
1172.4000, -24.398
1172.5000, -24.260
1172.6000, -24.031
1172.7000, -23.964
1172.8000, -23.804
1172.9000, -23.683
1173.0000, -23.609
1173.1000, -23.498
1173.2000, -23.311
1173.3000, -23.074
1173.4000, -22.981
1173.5000, -22.905
1173.6000, -22.754
1173.7000, -22.621
1173.8000, -22.494
1173.9000, -22.330
1174.0000, -22.249
1174.1000, -22.128
1174.2000, -22.011
1174.3000, -21.812
1174.4000, -21.756
1174.5000, -21.608
1174.6000, -21.489
1174.7000, -21.411
1174.8000, -21.212
1174.9000, -21.202
1175.0000, -20.997
1175.1000, -20.993
1175.2000, -20.816
1175.3000, -20.678
1175.4000, -20.592
1175.5000, -20.503
1175.6000, -20.408
1175.7000, -20.364
1175.8000, -20.192
1175.9000, -20.106
1176.0000, -20.021
1176.1000, -19.923
1176.2000, -19.851
1176.3000, -19.757
1176.4000, -19.678
1176.5000, -19.573
1176.6000, -19.547
1176.7000, -19.403
1176.8000, -19.352
1176.9000, -19.309
1177.0000, -19.133
1177.1000, -19.071
1177.2000, -18.986
1177.3000, -18.940
1177.4000, -18.859
1177.5000, -18.853
1177.6000, -18.767
1177.7000, -18.693
1177.8000, -18.634
1177.9000, -18.643
1178.0000, -18.493
1178.1000, -18.452
1178.2000, -18.468
1178.3000, -18.432
1178.4000, -18.304
1178.5000, -18.304
1178.6000, -18.159
1178.7000, -18.280
1178.8000, -18.209
1178.9000, -18.199
1179.0000, -18.129
1179.1000, -18.128
1179.2000, -18.157
1179.3000, -18.090
1179.4000, -18.153
1179.5000, -18.035
1179.6000, -18.104
1179.7000, -18.148
1179.8000, -18.098
1179.9000, -18.107
1180.0000, -18.184
1180.1000, -18.077
1180.2000, -18.244
1180.3000, -18.215
1180.4000, -18.206
1180.5000, -18.258
1180.6000, -18.262
1180.7000, -18.282
1180.8000, -18.335
1180.9000, -18.378
1181.0000, -18.398
1181.1000, -18.426
1181.2000, -18.544
1181.3000, -18.529
1181.4000, -18.694
1181.5000, -18.722
1181.6000, -18.771
1181.7000, -18.865
1181.8000, -18.852
1181.9000, -18.914
1182.0000, -19.047
1182.1000, -19.114
1182.2000, -19.167
1182.3000, -19.173
1182.4000, -19.301
1182.5000, -19.383
1182.6000, -19.409
1182.7000, -19.510
1182.8000, -19.539
1182.9000, -19.579
1183.0000, -19.721
1183.1000, -19.775
1183.2000, -19.895
1183.3000, -19.913
1183.4000, -20.024
1183.5000, -20.115
1183.6000, -20.234
1183.7000, -20.218
1183.8000, -20.366
1183.9000, -20.421
1184.0000, -20.434
1184.1000, -20.525
1184.2000, -20.653
1184.3000, -20.763
1184.4000, -20.793
1184.5000, -20.849
1184.6000, -20.978
1184.7000, -21.100
1184.8000, -21.200
1184.9000, -21.204
1185.0000, -21.295
1185.1000, -21.408
1185.2000, -21.474
1185.3000, -21.528
1185.4000, -21.592
1185.5000, -21.674
1185.6000, -21.752
1185.7000, -21.845
1185.8000, -21.958
1185.9000, -22.015
1186.0000, -22.119
1186.1000, -22.163
1186.2000, -22.256
1186.3000, -22.362
1186.4000, -22.409
1186.5000, -22.609
1186.6000, -22.546
1186.7000, -22.578
1186.8000, -22.697
1186.9000, -22.672
1187.0000, -22.725
1187.1000, -22.824
1187.2000, -22.924
1187.3000, -22.935
1187.4000, -23.058
1187.5000, -23.147
1187.6000, -23.166
1187.7000, -23.278
1187.8000, -23.316
1187.9000, -23.364
1188.0000, -23.388
1188.1000, -23.483
1188.2000, -23.503
1188.3000, -23.589
1188.4000, -23.624
1188.5000, -23.708
1188.6000, -23.818
1188.7000, -23.832
1188.8000, -23.831
1188.9000, -24.006
1189.0000, -23.942
1189.1000, -24.001
1189.2000, -24.066
1189.3000, -24.126
1189.4000, -24.178
1189.5000, -24.175
1189.6000, -24.164
1189.7000, -24.277
1189.8000, -24.317
1189.9000, -24.491
1190.0000, -24.556
1190.1000, -24.646
1190.2000, -24.517
1190.3000, -24.596
1190.4000, -24.506
1190.5000, -24.886
1190.6000, -24.751
1190.7000, -24.846
1190.8000, -24.757
1190.9000, -24.885
1191.0000, -24.831
1191.1000, -25.106
1191.2000, -25.176
1191.3000, -24.917
1191.4000, -24.876
1191.5000, -25.064
1191.6000, -25.330
1191.7000, -25.224
1191.8000, -25.306
1191.9000, -25.228
1192.0000, -25.146
1192.1000, -25.263
1192.2000, -25.595
1192.3000, -25.355
1192.4000, -25.247
1192.5000, -25.210
1192.6000, -25.458
1192.7000, -25.691
1192.8000, -25.720
1192.9000, -25.439
1193.0000, -25.506
1193.1000, -25.555
1193.2000, -25.449
1193.3000, -25.665
1193.4000, -25.669
1193.5000, -25.891
1193.6000, -25.649
1193.7000, -25.829
1193.8000, -25.865
1193.9000, -25.931
1194.0000, -25.964
1194.1000, -26.048
1194.2000, -26.024
1194.3000, -26.119
1194.4000, -26.202
1194.5000, -26.291
1194.6000, -26.372
1194.7000, -26.321
1194.8000, -26.380
1194.9000, -26.412
1195.0000, -26.565
1195.1000, -26.427
1195.2000, -26.627
1195.3000, -26.586
1195.4000, -26.752
1195.5000, -26.582
1195.6000, -26.745
1195.7000, -26.840
1195.8000, -27.068
1195.9000, -26.917
1196.0000, -27.191
1196.1000, -27.177
1196.2000, -27.233
1196.3000, -27.362
1196.4000, -27.259
1196.5000, -27.499
1196.6000, -27.650
1196.7000, -27.703
1196.8000, -27.660
1196.9000, -27.727
1197.0000, -27.942
1197.1000, -27.892
1197.2000, -27.970
1197.3000, -28.097
1197.4000, -28.143
1197.5000, -28.520
1197.6000, -28.222
1197.7000, -28.421
1197.8000, -28.545
1197.9000, -28.765
1198.0000, -28.499
1198.1000, -28.932
1198.2000, -28.793
1198.3000, -28.872
1198.4000, -28.965
1198.5000, -29.266
1198.6000, -29.331
1198.7000, -29.381
1198.8000, -29.352
1198.9000, -29.529
1199.0000, -29.788
1199.1000, -29.813
1199.2000, -29.969
1199.3000, -29.949
1199.4000, -30.145
1199.5000, -30.051
1199.6000, -30.254
1199.7000, -30.384
1199.8000, -30.488
1199.9000, -30.391
1200.0000, -30.547
1200.1000, -30.763
1200.2000, -30.682
1200.3000, -30.940
1200.4000, -31.068
1200.5000, -31.000
1200.6000, -31.246
1200.7000, -31.263
1200.8000, -31.421
1200.9000, -31.598
1201.0000, -31.650
1201.1000, -32.045
1201.2000, -31.868
1201.3000, -32.055
1201.4000, -32.156
1201.5000, -32.267
1201.6000, -32.222
1201.7000, -32.405
1201.8000, -32.568
1201.9000, -32.837
1202.0000, -32.709
1202.1000, -32.773
1202.2000, -33.662
1202.3000, -34.019
1202.4000, -33.673
1202.5000, -33.394
1202.6000, -33.596
1202.7000, -35.575
1202.8000, -33.988
1202.9000, -34.890
1203.0000, -33.891
1203.1000, -34.971
1203.2000, -35.076
1203.3000, -35.534
1203.4000, -36.134
1203.5000, -35.292
1203.6000, -35.292
1203.7000, -35.911
1203.8000, -37.263
1203.9000, -35.797
1204.0000, -36.723
1204.1000, -36.152
1204.2000, -36.532
1204.3000, -36.178
1204.4000, -36.320
1204.5000, -36.567
1204.6000, -36.667
1204.7000, -36.731
1204.8000, -36.968
1204.9000, -37.133
1205.0000, -36.511
1205.1000, -36.898
1205.2000, -36.841
1205.3000, -37.304
1205.4000, -36.916
1205.5000, -37.536
1205.6000, -37.280
1205.7000, -37.256
1205.8000, -37.410
1205.9000, -38.102
1206.0000, -37.934
1206.1000, -37.746
1206.2000, -37.897
1206.3000, -38.221
1206.4000, -38.318
1206.5000, -38.175
1206.6000, -38.727
1206.7000, -38.713
1206.8000, -38.609
1206.9000, -38.763
1207.0000, -38.986
1207.1000, -39.145
1207.2000, -39.012
1207.3000, -39.279
1207.4000, -39.444
1207.5000, -39.623
1207.6000, -39.837
1207.7000, -39.794
1207.8000, -40.283
1207.9000, -39.800
1208.0000, -40.253
1208.1000, -40.659
1208.2000, -40.251
1208.3000, -40.489
1208.4000, -40.901
1208.5000, -40.760
1208.6000, -40.982
1208.7000, -41.130
1208.8000, -41.281
1208.9000, -41.502
1209.0000, -41.590
1209.1000, -41.424
1209.2000, -41.892
1209.3000, -41.735
1209.4000, -42.089
1209.5000, -42.147
1209.6000, -42.233
1209.7000, -42.563
1209.8000, -42.507
1209.9000, -42.768
1210.0000, -43.041
1210.1000, -42.785
1210.2000, -43.204
1210.3000, -43.117
1210.4000, -42.880
1210.5000, -43.266
1210.6000, -43.826
1210.7000, -43.758
1210.8000, -43.625
1210.9000, -43.852
1211.0000, -44.050
1211.1000, -43.918
1211.2000, -44.036
1211.3000, -44.470
1211.4000, -44.520
1211.5000, -44.930
1211.6000, -44.871
1211.7000, -44.957
1211.8000, -45.189
1211.9000, -44.979
1212.0000, -45.351
1212.1000, -45.035
1212.2000, -45.243
1212.3000, -45.407
1212.4000, -45.292
1212.5000, -45.782
1212.6000, -45.571
1212.7000, -45.570
1212.8000, -46.134
1212.9000, -46.029
1213.0000, -46.384
1213.1000, -46.237
1213.2000, -46.191
1213.3000, -46.065
1213.4000, -46.137
1213.5000, -46.430
1213.6000, -46.493
1213.7000, -46.726
1213.8000, -46.349
1213.9000, -46.934
1214.0000, -46.835
1214.1000, -46.778
1214.2000, -46.809
1214.3000, -46.880
1214.4000, -46.790
1214.5000, -47.082
1214.6000, -46.841
1214.7000, -47.071
1214.8000, -46.875
1214.9000, -46.924
1215.0000, -47.020
1215.1000, -47.210
1215.2000, -47.002
1215.3000, -47.083
1215.4000, -47.170
1215.5000, -47.121
1215.6000, -47.031
1215.7000, -47.028
1215.8000, -46.747
1215.9000, -46.883
1216.0000, -47.062
1216.1000, -47.068
1216.2000, -47.057
1216.3000, -46.944
1216.4000, -46.795
1216.5000, -47.191
1216.6000, -46.905
1216.7000, -46.856
1216.8000, -46.687
1216.9000, -46.962
1217.0000, -46.803
1217.1000, -46.673
1217.2000, -46.524
1217.3000, -46.681
1217.4000, -46.511
1217.5000, -46.478
1217.6000, -46.274
1217.7000, -46.297
1217.8000, -46.233
1217.9000, -46.093
1218.0000, -45.988
1218.1000, -45.940
1218.2000, -45.849
1218.3000, -45.944
1218.4000, -45.793
1218.5000, -45.661
1218.6000, -45.732
1218.7000, -45.463
1218.8000, -45.559
1218.9000, -45.469
1219.0000, -45.301
1219.1000, -45.137
1219.2000, -45.197
1219.3000, -44.829
1219.4000, -44.984
1219.5000, -44.660
1219.6000, -44.788
1219.7000, -44.598
1219.8000, -44.405
1219.9000, -44.450
1220.0000, -44.422
1220.1000, -44.125
1220.2000, -44.016
1220.3000, -44.096
1220.4000, -43.672
1220.5000, -43.672
1220.6000, -43.581
1220.7000, -43.720
1220.8000, -43.472
1220.9000, -43.105
1221.0000, -43.130
1221.1000, -43.028
1221.2000, -42.893
1221.3000, -42.689
1221.4000, -42.745
1221.5000, -42.510
1221.6000, -42.565
1221.7000, -42.194
1221.8000, -42.219
1221.9000, -42.169
1222.0000, -41.954
1222.1000, -41.945
1222.2000, -41.878
1222.3000, -41.635
1222.4000, -41.553
1222.5000, -41.281
1222.6000, -41.257
1222.7000, -41.125
1222.8000, -40.942
1222.9000, -40.860
1223.0000, -40.659
1223.1000, -40.657
1223.2000, -40.418
1223.3000, -40.311
1223.4000, -40.082
1223.5000, -40.108
1223.6000, -39.828
1223.7000, -39.806
1223.8000, -39.680
1223.9000, -39.596
1224.0000, -39.350
1224.1000, -39.231
1224.2000, -39.186
1224.3000, -39.047
1224.4000, -38.731
1224.5000, -38.758
1224.6000, -38.639
1224.7000, -38.581
1224.8000, -38.255
1224.9000, -38.261
1225.0000, -37.796
1225.1000, -38.141
1225.2000, -37.697
1225.3000, -37.780
1225.4000, -37.503
1225.5000, -37.477
1225.6000, -37.202
1225.7000, -37.175
1225.8000, -36.854
1225.9000, -36.912
1226.0000, -36.647
1226.1000, -36.601
1226.2000, -36.468
1226.3000, -36.306
1226.4000, -36.068
1226.5000, -36.041
1226.6000, -35.929
1226.7000, -35.627
1226.8000, -35.597
1226.9000, -35.474
1227.0000, -35.413
1227.1000, -35.054
1227.2000, -35.089
1227.3000, -34.870
1227.4000, -34.901
1227.5000, -34.578
1227.6000, -34.584
1227.7000, -34.308
1227.8000, -34.270
1227.9000, -33.889
1228.0000, -33.998
1228.1000, -33.695
1228.2000, -33.757
1228.3000, -33.420
1228.4000, -33.548
1228.5000, -33.209
1228.6000, -33.179
1228.7000, -32.950
1228.8000, -33.079
1228.9000, -32.732
1229.0000, -32.505
1229.1000, -32.363
1229.2000, -32.307
1229.3000, -32.107
1229.4000, -31.994
1229.5000, -31.928
1229.6000, -31.802
1229.7000, -31.664
1229.8000, -31.400
1229.9000, -31.277
1230.0000, -31.199
1230.1000, -31.164
1230.2000, -30.829
1230.3000, -30.956
1230.4000, -30.611
1230.5000, -30.679
1230.6000, -30.387
1230.7000, -30.435
1230.8000, -30.227
1230.9000, -30.215
1231.0000, -29.941
1231.1000, -29.911
1231.2000, -29.613
1231.3000, -29.718
1231.4000, -29.356
1231.5000, -29.539
1231.6000, -29.213
1231.7000, -29.220
1231.8000, -28.800
1231.9000, -29.024
1232.0000, -28.675
1232.1000, -28.656
1232.2000, -28.533
1232.3000, -28.502
1232.4000, -28.218
1232.5000, -28.276
1232.6000, -27.977
1232.7000, -27.998
1232.8000, -27.923
1232.9000, -27.851
1233.0000, -27.696
1233.1000, -27.536
1233.2000, -27.537
1233.3000, -27.309
1233.4000, -27.294
1233.5000, -27.122
1233.6000, -27.030
1233.7000, -26.973
1233.8000, -26.838
1233.9000, -26.710
1234.0000, -26.831
1234.1000, -26.463
1234.2000, -26.458
1234.3000, -26.467
1234.4000, -26.411
1234.5000, -26.166
1234.6000, -26.223
1234.7000, -25.947
1234.8000, -26.133
1234.9000, -25.805
1235.0000, -25.983
1235.1000, -25.554
1235.2000, -25.792
1235.3000, -25.417
1235.4000, -25.626
1235.5000, -25.232
1235.6000, -25.498
1235.7000, -25.164
1235.8000, -25.198
1235.9000, -25.025
1236.0000, -25.201
1236.1000, -24.854
1236.2000, -25.037
1236.3000, -24.829
1236.4000, -24.809
1236.5000, -24.636
1236.6000, -24.681
1236.7000, -24.433
1236.8000, -24.493
1236.9000, -24.398
1237.0000, -24.409
1237.1000, -24.267
1237.2000, -24.084
1237.3000, -24.143
1237.4000, -24.010
1237.5000, -24.135
1237.6000, -23.877
1237.7000, -24.016
1237.8000, -23.749
1237.9000, -23.833
1238.0000, -23.622
1238.1000, -23.818
1238.2000, -23.540
1238.3000, -23.707
1238.4000, -23.425
1238.5000, -23.677
1238.6000, -23.404
1238.7000, -23.560
1238.8000, -23.338
1238.9000, -23.701
1239.0000, -23.276
1239.1000, -23.482
1239.2000, -23.281
1239.3000, -23.363
1239.4000, -23.162
1239.5000, -23.498
1239.6000, -23.125
1239.7000, -23.235
1239.8000, -23.076
1239.9000, -23.241
1240.0000, -22.907
1240.1000, -23.204
1240.2000, -22.926
1240.3000, -23.081
1240.4000, -22.814
1240.5000, -23.043
1240.6000, -22.918
1240.7000, -22.885
1240.8000, -22.865
1240.9000, -22.961
1241.0000, -22.944
1241.1000, -23.002
1241.2000, -22.986
1241.3000, -22.964
1241.4000, -22.988
1241.5000, -22.965
1241.6000, -23.013
1241.7000, -23.019
1241.8000, -22.975
1241.9000, -23.058
1242.0000, -23.060
1242.1000, -22.875
1242.2000, -23.130
1242.3000, -23.009
1242.4000, -23.417
1242.5000, -23.118
1242.6000, -23.218
1242.7000, -23.215
1242.8000, -23.368
1242.9000, -23.294
1243.0000, -23.580
1243.1000, -23.417
1243.2000, -23.693
1243.3000, -23.410
1243.4000, -23.752
1243.5000, -23.391
1243.6000, -23.873
1243.7000, -23.514
1243.8000, -23.813
1243.9000, -23.596
1244.0000, -23.946
1244.1000, -23.698
1244.2000, -23.952
1244.3000, -23.656
1244.4000, -23.999
1244.5000, -23.824
1244.6000, -24.083
1244.7000, -23.889
1244.8000, -24.194
1244.9000, -24.185
1245.0000, -24.288
1245.1000, -24.222
1245.2000, -24.468
1245.3000, -24.391
1245.4000, -24.589
1245.5000, -24.554
1245.6000, -24.793
1245.7000, -24.718
1245.8000, -24.943
1245.9000, -24.880
1246.0000, -25.071
1246.1000, -25.303
1246.2000, -25.306
1246.3000, -25.406
1246.4000, -25.481
1246.5000, -25.719
1246.6000, -25.646
1246.7000, -25.807
1246.8000, -25.842
1246.9000, -26.093
1247.0000, -26.072
1247.1000, -26.432
1247.2000, -26.294
1247.3000, -26.631
1247.4000, -26.424
1247.5000, -27.003
1247.6000, -26.577
1247.7000, -27.088
1247.8000, -26.830
1247.9000, -27.193
1248.0000, -26.827
1248.1000, -27.651
1248.2000, -27.319
1248.3000, -27.400
1248.4000, -27.176
1248.5000, -27.900
1248.6000, -27.494
1248.7000, -27.918
1248.8000, -27.544
1248.9000, -28.362
1249.0000, -28.020
1249.1000, -28.273
1249.2000, -28.158
1249.3000, -28.968
1249.4000, -28.542
1249.5000, -28.856
1249.6000, -28.759
1249.7000, -29.409
1249.8000, -29.333
1249.9000, -29.632
1250.0000, -29.336
1250.1000, -30.046
1250.2000, -29.738
1250.3000, -30.233
1250.4000, -30.147
1250.5000, -30.348
1250.6000, -30.319
1250.7000, -31.188
1250.8000, -30.854
1250.9000, -30.918
1251.0000, -31.504
1251.1000, -31.729
1251.2000, -31.713
1251.3000, -32.082
1251.4000, -32.133
1251.5000, -32.276
1251.6000, -32.613
1251.7000, -32.352
1251.8000, -32.682
1251.9000, -33.093
1252.0000, -32.941
1252.1000, -32.948
1252.2000, -33.256
1252.3000, -33.163
1252.4000, -33.527
1252.5000, -33.698
1252.6000, -33.566
1252.7000, -33.657
1252.8000, -34.513
1252.9000, -34.261
1253.0000, -34.684
1253.1000, -34.618
1253.2000, -35.200
1253.3000, -35.122
1253.4000, -35.902
1253.5000, -35.458
1253.6000, -36.048
1253.7000, -35.831
1253.8000, -36.712
1253.9000, -36.140
1254.0000, -37.403
1254.1000, -36.820
1254.2000, -37.169
1254.3000, -37.278
1254.4000, -37.914
1254.5000, -37.239
1254.6000, -38.188
1254.7000, -37.826
1254.8000, -39.026
1254.9000, -38.044
1255.0000, -39.043
1255.1000, -38.566
1255.2000, -39.759
1255.3000, -38.618
1255.4000, -39.321
1255.5000, -39.032
1255.6000, -39.977
1255.7000, -39.209
1255.8000, -40.299
1255.9000, -39.155
1256.0000, -40.609
1256.1000, -40.052
1256.2000, -40.413
1256.3000, -39.635
1256.4000, -40.855
1256.5000, -40.318
1256.6000, -41.383
1256.7000, -40.634
1256.8000, -41.188
1256.9000, -40.669
1257.0000, -41.556
1257.1000, -40.778
1257.2000, -42.302
1257.3000, -41.327
1257.4000, -42.319
1257.5000, -41.949
1257.6000, -42.738
1257.7000, -42.136
1257.8000, -43.993
1257.9000, -42.174
1258.0000, -43.381
1258.1000, -43.606
1258.2000, -43.878
1258.3000, -43.363
1258.4000, -44.198
1258.5000, -43.726
1258.6000, -44.177
1258.7000, -44.676
1258.8000, -44.475
1258.9000, -44.665
1259.0000, -45.000
1259.1000, -44.850
1259.2000, -44.482
1259.3000, -45.113
1259.4000, -45.749
1259.5000, -45.221
1259.6000, -45.358
1259.7000, -45.330
1259.8000, -45.578
1259.9000, -45.572
1260.0000, -45.399
1260.1000, -46.152
1260.2000, -45.887
1260.3000, -46.231
1260.4000, -45.603
1260.5000, -46.277
1260.6000, -45.708
1260.7000, -46.808
1260.8000, -46.108
1260.9000, -46.831
1261.0000, -46.992
1261.1000, -47.995
1261.2000, -46.987
1261.3000, -47.845
1261.4000, -47.877
1261.5000, -48.336
1261.6000, -47.628
1261.7000, -48.911
1261.8000, -48.061
1261.9000, -49.875
1262.0000, -48.467
1262.1000, -50.047
1262.2000, -49.007
1262.3000, -50.007
1262.4000, -49.117
1262.5000, -50.538
1262.6000, -50.029
1262.7000, -49.356
1262.8000, -50.014
1262.9000, -50.797
1263.0000, -49.426
1263.1000, -50.343
1263.2000, -49.712
1263.3000, -49.616
1263.4000, -49.919
1263.5000, -50.947
1263.6000, -49.922
1263.7000, -51.517
1263.8000, -50.577
1263.9000, -51.026
1264.0000, -51.291
1264.1000, -52.136
1264.2000, -50.475
1264.3000, -52.645
1264.4000, -51.533
1264.5000, -52.747
1264.6000, -52.657
1264.7000, -53.008
1264.8000, -52.525
1264.9000, -53.731
1265.0000, -53.145
1265.1000, -54.862
1265.2000, -53.715
1265.3000, -54.095
1265.4000, -53.294
1265.5000, -55.392
1265.6000, -52.759
1265.7000, -55.392
1265.8000, -53.769
1265.9000, -55.107
1266.0000, -54.633
1266.1000, -55.586
1266.2000, -54.156
1266.3000, -55.370
1266.4000, -55.328
1266.5000, -56.601
1266.6000, -55.321
1266.7000, -56.970
1266.8000, -55.007
1266.9000, -57.350
1267.0000, -56.074
1267.1000, -56.382
1267.2000, -56.172
1267.3000, -57.475
1267.4000, -55.412
1267.5000, -57.658
1267.6000, -56.960
1267.7000, -56.722
1267.8000, -56.530
1267.9000, -57.945
1268.0000, -56.896
1268.1000, -58.504
1268.2000, -56.372
1268.3000, -58.289
1268.4000, -57.664
1268.5000, -58.707
1268.6000, -57.119
1268.7000, -59.810
1268.8000, -59.237
1268.9000, -60.269
1269.0000, -58.980
1269.1000, -59.138
1269.2000, -58.780
1269.3000, -61.193
1269.4000, -58.018
1269.5000, -59.971
1269.6000, -59.902
1269.7000, -60.155
1269.8000, -59.740
1269.9000, -61.321
1270.0000, -59.698
1270.1000, -61.776
1270.2000, -60.296
1270.3000, -60.505
1270.4000, -59.681
1270.5000, -62.526
1270.6000, -61.352
1270.7000, -61.390
1270.8000, -60.455
1270.9000, -62.202
1271.0000, -61.762
1271.1000, -62.963
1271.2000, -60.537
1271.3000, -62.589
1271.4000, -62.196
1271.5000, -62.548
1271.6000, -61.664
1271.7000, -62.918
1271.8000, -61.842
1271.9000, -63.990
1272.0000, -62.377
1272.1000, -63.819
1272.2000, -63.312
1272.3000, -64.575
1272.4000, -62.165
1272.5000, -64.087
1272.6000, -63.237
1272.7000, -63.321
1272.8000, -62.903
1272.9000, -63.332
1273.0000, -62.866
1273.1000, -64.822
1273.2000, -63.560
1273.3000, -64.416
1273.4000, -63.497
1273.5000, -64.164
1273.6000, -64.002
1273.7000, -64.425
1273.8000, -63.702
1273.9000, -64.642
1274.0000, -64.243
1274.1000, -65.167
1274.2000, -63.953
1274.3000, -65.916
1274.4000, -64.996
1274.5000, -65.525
1274.6000, -65.075
1274.7000, -66.191
1274.8000, -65.060
1274.9000, -67.149
1275.0000, -65.252
1275.1000, -66.266
1275.2000, -65.705
1275.3000, -66.427
1275.4000, -66.086
1275.5000, -67.471
1275.6000, -65.005
1275.7000, -66.634
1275.8000, -66.218
1275.9000, -67.270
1276.0000, -65.592
1276.1000, -67.190
1276.2000, -66.038
1276.3000, -67.039
1276.4000, -65.615
1276.5000, -66.460
1276.6000, -65.868
1276.7000, -66.681
1276.8000, -64.987
1276.9000, -66.591
1277.0000, -65.470
1277.1000, -66.570
1277.2000, -65.698
1277.3000, -66.702
1277.4000, -65.295
1277.5000, -66.256
1277.6000, -65.911
1277.7000, -66.213
1277.8000, -65.950
1277.9000, -66.526
1278.0000, -65.549
1278.1000, -66.335
1278.2000, -65.786
1278.3000, -66.021
1278.4000, -65.734
1278.5000, -66.281
1278.6000, -65.953
1278.7000, -66.647
1278.8000, -66.053
1278.9000, -66.563
1279.0000, -66.191
1279.1000, -67.046
1279.2000, -65.837
1279.3000, -67.427
1279.4000, -66.765
1279.5000, -66.984
1279.6000, -66.848
1279.7000, -68.562
1279.8000, -66.727
1279.9000, -68.044
1280.0000, -66.751
1280.1000, -68.146
1280.2000, -67.779
1280.3000, -68.273
1280.4000, -67.245
1280.5000, -67.859
1280.6000, -67.152
1280.7000, -67.575
1280.8000, -66.782
1280.9000, -67.175
1281.0000, -64.953
1281.1000, -66.146
1281.2000, -65.405
1281.3000, -66.117
1281.4000, -65.140
1281.5000, -65.373
1281.6000, -65.333
1281.7000, -64.925
1281.8000, -63.951
1281.9000, -64.493
1282.0000, -64.546
1282.1000, -64.585
1282.2000, -64.341
1282.3000, -64.579
1282.4000, -63.995
1282.5000, -65.028
1282.6000, -63.907
1282.7000, -64.005
1282.8000, -64.049
1282.9000, -64.293
1283.0000, -63.958
1283.1000, -64.179
1283.2000, -64.204
1283.3000, -64.936
1283.4000, -64.299
1283.5000, -65.308
1283.6000, -64.134
1283.7000, -65.746
1283.8000, -65.621
1283.9000, -66.429
1284.0000, -65.517
1284.1000, -66.570
1284.2000, -66.247
1284.3000, -66.603
1284.4000, -66.117
1284.5000, -66.756
1284.6000, -65.804
1284.7000, -66.286
1284.8000, -66.696
1284.9000, -65.271
1285.0000, -65.527
1285.1000, -66.073
1285.2000, -66.030
1285.3000, -64.724
1285.4000, -64.874
1285.5000, -64.014
1285.6000, -64.279
1285.7000, -63.316
1285.8000, -63.397
1285.9000, -63.154
1286.0000, -62.630
1286.1000, -62.156
1286.2000, -62.287
1286.3000, -61.608
1286.4000, -61.942
1286.5000, -61.251
1286.6000, -61.718
1286.7000, -61.668
1286.8000, -61.625
1286.9000, -61.364
1287.0000, -61.893
1287.1000, -61.034
1287.2000, -61.831
1287.3000, -61.004
1287.4000, -62.629
1287.5000, -60.793
1287.6000, -61.903
1287.7000, -61.656
1287.8000, -62.886
1287.9000, -62.758
1288.0000, -62.695
1288.1000, -62.796
1288.2000, -63.718
1288.3000, -63.981
1288.4000, -63.298
1288.5000, -64.436
1288.6000, -63.282
1288.7000, -63.913
1288.8000, -63.642
1288.9000, -62.307
1289.0000, -63.587
1289.1000, -62.183
1289.2000, -63.418
1289.3000, -61.771
1289.4000, -62.934
1289.5000, -61.725
1289.6000, -62.253
1289.7000, -60.240
1289.8000, -61.567
1289.9000, -60.693
1290.0000, -60.259
1290.1000, -59.387
1290.2000, -59.384
1290.3000, -60.621
1290.4000, -59.323
1290.5000, -59.875
1290.6000, -58.570
1290.7000, -58.861
1290.8000, -58.998
1290.9000, -59.163
1291.0000, -58.273
1291.1000, -58.070
1291.2000, -59.571
1291.3000, -58.215
1291.4000, -59.353
1291.5000, -59.064
1291.6000, -59.414
1291.7000, -58.972
1291.8000, -58.963
1291.9000, -58.725
1292.0000, -59.587
1292.1000, -59.813
1292.2000, -59.485
1292.3000, -59.989
1292.4000, -59.755
1292.5000, -61.226
1292.6000, -60.869
1292.7000, -61.162
1292.8000, -60.609
1292.9000, -59.926
1293.0000, -60.830
1293.1000, -59.601
1293.2000, -60.707
1293.3000, -58.868
1293.4000, -59.982
1293.5000, -58.553
1293.6000, -58.695
1293.7000, -57.896
1293.8000, -57.713
1293.9000, -57.523
1294.0000, -56.074
1294.1000, -56.924
1294.2000, -56.211
1294.3000, -55.938
1294.4000, -55.686
1294.5000, -55.875
1294.6000, -55.597
1294.7000, -56.544
1294.8000, -56.180
1294.9000, -56.175
1295.0000, -55.331
1295.1000, -54.890
1295.2000, -56.683
1295.3000, -55.439
1295.4000, -55.795
1295.5000, -55.387
1295.6000, -55.315
1295.7000, -55.444
1295.8000, -55.752
1295.9000, -55.531
1296.0000, -55.373
1296.1000, -56.580
1296.2000, -55.145
1296.3000, -57.911
1296.4000, -55.744
1296.5000, -56.925
1296.6000, -56.794
1296.7000, -56.362
1296.8000, -56.151
1296.9000, -57.134
1297.0000, -57.447
1297.1000, -56.313
1297.2000, -58.037
1297.3000, -55.355
1297.4000, -56.655
1297.5000, -55.953
1297.6000, -55.267
1297.7000, -57.001
1297.8000, -55.107
1297.9000, -54.678
1298.0000, -54.359
1298.1000, -54.842
1298.2000, -53.800
1298.3000, -54.347
1298.4000, -53.203
1298.5000, -53.946
1298.6000, -53.768
1298.7000, -53.437
1298.8000, -52.337
1298.9000, -52.550
1299.0000, -51.957
1299.1000, -52.219
1299.2000, -53.861
1299.3000, -52.367
1299.4000, -52.345
1299.5000, -52.800
1299.6000, -52.713
1299.7000, -52.952
1299.8000, -52.390
1299.9000, -53.827
1300.0000, -52.330
1300.1000, -53.993
1300.2000, -53.452
1300.3000, -53.762
1300.4000, -53.811
1300.5000, -52.403
1300.6000, -52.994
1300.7000, -52.898
1300.8000, -53.398
1300.9000, -53.026
1301.0000, -54.986
1301.1000, -52.448
1301.2000, -53.126
1301.3000, -51.319
1301.4000, -53.108
1301.5000, -51.666
1301.6000, -52.060
1301.7000, -52.481
1301.8000, -50.780
1301.9000, -51.323
1302.0000, -51.088
1302.1000, -51.071
1302.2000, -50.910
1302.3000, -50.971
1302.4000, -51.435
1302.5000, -50.041
1302.6000, -51.908
1302.7000, -50.662
1302.8000, -52.044
1302.9000, -52.273
1303.0000, -49.914
1303.1000, -49.690
1303.2000, -49.612
1303.3000, -50.982
1303.4000, -51.238
1303.5000, -50.288
1303.6000, -50.547
1303.7000, -49.498
1303.8000, -51.211
1303.9000, -49.200
1304.0000, -49.204
1304.1000, -49.838
1304.2000, -51.126
1304.3000, -51.537
1304.4000, -49.309
1304.5000, -50.310
1304.6000, -50.089
1304.7000, -50.914
1304.8000, -49.171
1304.9000, -51.354
1305.0000, -49.695
1305.1000, -51.065
1305.2000, -50.250
1305.3000, -49.723
1305.4000, -48.887
1305.5000, -51.266
1305.6000, -50.163
1305.7000, -49.452
1305.8000, -49.017
1305.9000, -49.256
1306.0000, -49.244
1306.1000, -49.423
1306.2000, -48.946
1306.3000, -49.076
1306.4000, -48.335
1306.5000, -48.294
1306.6000, -48.848
1306.7000, -49.093
1306.8000, -48.911
1306.9000, -48.764
1307.0000, -47.660
1307.1000, -47.870
1307.2000, -47.469
1307.3000, -47.645
1307.4000, -47.669
1307.5000, -48.734
1307.6000, -48.843
1307.7000, -48.917
1307.8000, -47.845
1307.9000, -47.937
1308.0000, -48.499
1308.1000, -48.147
1308.2000, -49.126
1308.3000, -49.642
1308.4000, -47.666
1308.5000, -48.180
1308.6000, -48.610
1308.7000, -49.274
1308.8000, -49.262
1308.9000, -48.364
1309.0000, -48.580
1309.1000, -48.517
1309.2000, -49.564
1309.3000, -48.479
1309.4000, -48.476
1309.5000, -49.490
1309.6000, -48.878
1309.7000, -49.518
1309.8000, -50.315
1309.9000, -47.519
1310.0000, -48.384
1310.1000, -49.924
1310.2000, -50.108
1310.3000, -49.439
1310.4000, -49.685
1310.5000, -49.379
1310.6000, -49.307
1310.7000, -48.811
1310.8000, -49.593
1310.9000, -49.229
1311.0000, -49.131
1311.1000, -49.273
1311.2000, -49.200
1311.3000, -48.142
1311.4000, -48.018
1311.5000, -49.081
1311.6000, -48.713
1311.7000, -48.882
1311.8000, -49.320
1311.9000, -48.953
1312.0000, -48.325
1312.1000, -47.857
1312.2000, -48.754
1312.3000, -49.701
1312.4000, -49.478
1312.5000, -49.186
1312.6000, -49.286
1312.7000, -50.306
1312.8000, -49.742
1312.9000, -51.676
1313.0000, -51.930
1313.1000, -52.009
1313.2000, -50.254
1313.3000, -51.491
1313.4000, -51.816
1313.5000, -50.360
1313.6000, -50.980
1313.7000, -51.772
1313.8000, -51.289
1313.9000, -49.732
1314.0000, -50.296
1314.1000, -51.002
1314.2000, -49.661
1314.3000, -50.221
1314.4000, -51.163
1314.5000, -51.474
1314.6000, -51.265
1314.7000, -50.788
1314.8000, -51.141
1314.9000, -51.981
1315.0000, -50.768
1315.1000, -52.039
1315.2000, -51.306
1315.3000, -50.788
1315.4000, -51.906
1315.5000, -52.345
1315.6000, -52.353
1315.7000, -52.136
1315.8000, -52.298
1315.9000, -52.281
1316.0000, -53.825
1316.1000, -52.906
1316.2000, -53.445
1316.3000, -52.750
1316.4000, -51.801
1316.5000, -54.070
1316.6000, -53.957
1316.7000, -54.489
1316.8000, -54.087
1316.9000, -53.606
1317.0000, -54.034
1317.1000, -52.946
1317.2000, -53.220
1317.3000, -55.050
1317.4000, -54.963
1317.5000, -54.189
1317.6000, -55.662
1317.7000, -56.228
1317.8000, -53.798
1317.9000, -54.535
1318.0000, -55.225
1318.1000, -55.523
1318.2000, -58.182
1318.3000, -55.655
1318.4000, -55.192
1318.5000, -55.672
1318.6000, -56.040
1318.7000, -55.416
1318.8000, -56.622
1318.9000, -55.847
1319.0000, -56.214
1319.1000, -55.125
1319.2000, -55.619
1319.3000, -57.140
1319.4000, -56.851
1319.5000, -55.172
1319.6000, -55.871
1319.7000, -56.556
1319.8000, -56.983
1319.9000, -58.080
1320.0000, -57.040
1320.1000, -57.476
1320.2000, -59.402
1320.3000, -58.272
1320.4000, -58.629
1320.5000, -58.166
1320.6000, -58.715
1320.7000, -59.688
1320.8000, -59.219
1320.9000, -58.408
1321.0000, -60.074
1321.1000, -60.314
1321.2000, -60.045
1321.3000, -59.459
1321.4000, -59.375
1321.5000, -60.652
1321.6000, -60.321
1321.7000, -61.030
1321.8000, -61.037
1321.9000, -61.552
1322.0000, -60.972
1322.1000, -60.928
1322.2000, -61.746
1322.3000, -60.809
1322.4000, -61.258
1322.5000, -61.973
1322.6000, -61.540
1322.7000, -62.796
1322.8000, -62.737
1322.9000, -63.032
1323.0000, -63.683
1323.1000, -65.616
1323.2000, -63.800
1323.3000, -64.206
1323.4000, -63.263
1323.5000, -63.751
1323.6000, -64.455
1323.7000, -64.965
1323.8000, -64.403
1323.9000, -64.590
1324.0000, -64.150
1324.1000, -64.137
1324.2000, -65.629
1324.3000, -65.918
1324.4000, -65.113
1324.5000, -66.004
1324.6000, -64.589
1324.7000, -67.377
1324.8000, -66.685
1324.9000, -64.358
1325.0000, -64.559
1325.1000, -66.594
1325.2000, -66.277
1325.3000, -69.212
1325.4000, -68.045
1325.5000, -68.424
1325.6000, -67.883
1325.7000, -68.039
1325.8000, -67.267
1325.9000, -68.568
1326.0000, -66.146
1326.1000, -69.975
1326.2000, -68.969
1326.3000, -67.840
1326.4000, -69.687
1326.5000, -69.326
1326.6000, -69.390
1326.7000, -67.197
1326.8000, -68.844
1326.9000, -70.069
1327.0000, -70.122
1327.1000, -68.607
1327.2000, -71.162
1327.3000, -69.847
1327.4000, -70.699
1327.5000, -71.653
1327.6000, -71.435
1327.7000, -71.977
1327.8000, -70.754
1327.9000, -68.987
1328.0000, -68.123
1328.1000, -71.379
1328.2000, -70.991
1328.3000, -69.413
1328.4000, -71.367
1328.5000, -69.863
1328.6000, -73.749
1328.7000, -72.050
1328.8000, -72.181
1328.9000, -72.113
1329.0000, -71.734
1329.1000, -69.946
1329.2000, -72.364
1329.3000, -70.845
1329.4000, -71.462
1329.5000, -73.650
1329.6000, -72.594
1329.7000, -73.977
1329.8000, -72.188
1329.9000, -71.263
1330.0000, -71.694
1330.1000, -71.204
1330.2000, -73.001
1330.3000, -74.358
1330.4000, -72.200
1330.5000, -73.289
1330.6000, -71.334
1330.7000, -72.046
1330.8000, -71.038
1330.9000, -67.410
1331.0000, -72.500
1331.1000, -72.571
1331.2000, -73.099
1331.3000, -73.886
1331.4000, -73.777
1331.5000, -74.339
1331.6000, -74.416
1331.7000, -74.061
1331.8000, -74.748
1331.9000, -73.004
1332.0000, -73.070
1332.1000, -74.708
1332.2000, -73.027
1332.3000, -73.843
1332.4000, -70.704
1332.5000, -72.800
1332.6000, -71.790
1332.7000, -75.873
1332.8000, -70.777
1332.9000, -75.121
1333.0000, -73.288
1333.1000, -73.087
1333.2000, -68.038
1333.3000, -74.058
1333.4000, -71.472
1333.5000, -75.036
1333.6000, -70.954
1333.7000, -75.729
1333.8000, -68.976
1333.9000, -73.135
1334.0000, -76.016
1334.1000, -72.305
1334.2000, -67.473
1334.3000, -69.194
1334.4000, -73.991
1334.5000, -70.713
1334.6000, -75.854
1334.7000, -71.535
1334.8000, -70.719
1334.9000, -74.433
1335.0000, -73.075
1335.1000, -70.056
1335.2000, -74.313
1335.3000, -72.549
1335.4000, -71.931
1335.5000, -74.770
1335.6000, -74.567
1335.7000, -75.116
1335.8000, -74.196
1335.9000, -72.336
1336.0000, -75.534
1336.1000, -70.287
1336.2000, -75.732
1336.3000, -76.167
1336.4000, -74.192
1336.5000, -73.495
1336.6000, -74.123
1336.7000, -72.903
1336.8000, -77.459
1336.9000, -77.753
1337.0000, -72.508
1337.1000, -75.394
1337.2000, -76.631
1337.3000, -70.779
1337.4000, -68.853
1337.5000, -74.345
1337.6000, -75.267
1337.7000, -71.668
1337.8000, -76.826
1337.9000, -77.355
1338.0000, -75.501
1338.1000, -72.392
1338.2000, -70.987
1338.3000, -75.243
1338.4000, -70.259
1338.5000, -73.545
1338.6000, -70.801
1338.7000, -74.794
1338.8000, -73.200
1338.9000, -75.040
1339.0000, -74.882
1339.1000, -71.590
1339.2000, -74.065
1339.3000, -74.590
1339.4000, -75.526
1339.5000, -75.185
1339.6000, -75.081
1339.7000, -75.610
1339.8000, -76.214
1339.9000, -75.965
1340.0000, -76.472
1340.1000, -75.897
1340.2000, -74.864
1340.3000, -71.500
1340.4000, -74.876
1340.5000, -77.555
1340.6000, -76.277
1340.7000, -77.104
1340.8000, -77.192
1340.9000, -76.606
1341.0000, -70.757
1341.1000, -76.797
1341.2000, -74.849
1341.3000, -75.361
1341.4000, -76.694
1341.5000, -76.232
1341.6000, -76.129
1341.7000, -76.876
1341.8000, -76.099
1341.9000, -75.972
1342.0000, -76.752
1342.1000, -77.495
1342.2000, -76.493
1342.3000, -77.448
1342.4000, -75.539
1342.5000, -73.908
1342.6000, -79.555
1342.7000, -77.480
1342.8000, -76.471
1342.9000, -75.985
1343.0000, -71.767
1343.1000, -77.964
1343.2000, -76.829
1343.3000, -78.478
1343.4000, -78.048
1343.5000, -76.996
1343.6000, -78.476
1343.7000, -78.708
1343.8000, -77.728
1343.9000, -77.487
1344.0000, -79.242
1344.1000, -78.215
1344.2000, -78.089
1344.3000, -77.905
1344.4000, -77.382
1344.5000, -77.452
1344.6000, -77.317
1344.7000, -76.839
1344.8000, -77.690
1344.9000, -79.017
1345.0000, -83.805
1345.1000, -76.829
1345.2000, -76.629
1345.3000, -80.458
1345.4000, -76.989
1345.5000, -78.909
1345.6000, -77.507
1345.7000, -78.594
1345.8000, -78.033
1345.9000, -76.519
1346.0000, -76.175
1346.1000, -78.537
1346.2000, -80.408
1346.3000, -78.008
1346.4000, -76.633
1346.5000, -78.558
1346.6000, -77.227
1346.7000, -78.534
1346.8000, -78.694
1346.9000, -79.039
1347.0000, -81.197
1347.1000, -77.661
1347.2000, -79.124
1347.3000, -78.427
1347.4000, -80.494
1347.5000, -77.509
1347.6000, -78.081
1347.7000, -77.434
1347.8000, -78.114
1347.9000, -81.623
1348.0000, -79.268
1348.1000, -79.187
1348.2000, -77.861
1348.3000, -77.697
1348.4000, -76.920
1348.5000, -79.842
1348.6000, -78.028
1348.7000, -79.325
1348.8000, -79.536
1348.9000, -76.948
1349.0000, -79.881
1349.1000, -77.268
1349.2000, -79.237
1349.3000, -79.681
1349.4000, -77.820
1349.5000, -78.015
1349.6000, -78.914
1349.7000, -78.861
1349.8000, -77.325
1349.9000, -78.307
1350.0000, -82.735
1350.1000, -78.648
1350.2000, -78.201
1350.3000, -80.275
1350.4000, -79.234
1350.5000, -79.518
1350.6000, -79.608
1350.7000, -78.489
1350.8000, -77.860
1350.9000, -80.687
1351.0000, -78.311
1351.1000, -78.985
1351.2000, -78.989
1351.3000, -78.169
1351.4000, -79.039
1351.5000, -78.730
1351.6000, -79.274
1351.7000, -77.569
1351.8000, -78.285
1351.9000, -79.317
1352.0000, -78.522
1352.1000, -78.411
1352.2000, -78.429
1352.3000, -78.577
1352.4000, -79.358
1352.5000, -78.453
1352.6000, -77.599
1352.7000, -79.693
1352.8000, -78.624
1352.9000, -79.030
1353.0000, -78.464
1353.1000, -78.481
1353.2000, -79.207
1353.3000, -77.665
1353.4000, -78.612
1353.5000, -79.164
1353.6000, -78.813
1353.7000, -77.638
1353.8000, -79.255
1353.9000, -77.745
1354.0000, -77.652
1354.1000, -78.224
1354.2000, -77.016
1354.3000, -78.510
1354.4000, -77.919
1354.5000, -78.762
1354.6000, -78.724
1354.7000, -77.856
1354.8000, -77.813
1354.9000, -79.812
1355.0000, -78.486
1355.1000, -77.991
1355.2000, -77.064
1355.3000, -77.751
1355.4000, -78.239
1355.5000, -79.479
1355.6000, -79.039
1355.7000, -77.232
1355.8000, -78.644
1355.9000, -79.298
1356.0000, -77.753
1356.1000, -77.642
1356.2000, -78.034
1356.3000, -77.995
1356.4000, -78.228
1356.5000, -77.650
1356.6000, -77.812
1356.7000, -77.096
1356.8000, -77.134
1356.9000, -77.152
1357.0000, -76.775
1357.1000, -76.641
1357.2000, -76.306
1357.3000, -77.660
1357.4000, -75.744
1357.5000, -77.492
1357.6000, -77.049
1357.7000, -77.034
1357.8000, -77.857
1357.9000, -77.906
1358.0000, -76.746
1358.1000, -78.601
1358.2000, -77.719
1358.3000, -78.135
1358.4000, -78.655
1358.5000, -77.666
1358.6000, -77.167
1358.7000, -78.271
1358.8000, -79.587
1358.9000, -79.684
1359.0000, -79.488
1359.1000, -78.499
1359.2000, -78.688
1359.3000, -78.734
1359.4000, -78.653
1359.5000, -79.620
1359.6000, -78.883
1359.7000, -78.893
1359.8000, -78.977
1359.9000, -78.695
1360.0000, -79.845
1360.1000, -77.939
1360.2000, -79.702
1360.3000, -79.404
1360.4000, -78.339
1360.5000, -78.818
1360.6000, -80.063
1360.7000, -78.220
1360.8000, -77.694
1360.9000, -78.925
1361.0000, -77.528
1361.1000, -80.745
1361.2000, -78.874
1361.3000, -79.033
1361.4000, -79.734
1361.5000, -77.152
1361.6000, -80.338
1361.7000, -78.255
1361.8000, -81.350
1361.9000, -79.717
1362.0000, -79.460
1362.1000, -78.747
1362.2000, -79.804
1362.3000, -80.056
1362.4000, -78.720
1362.5000, -78.426
1362.6000, -78.883
1362.7000, -79.525
1362.8000, -79.505
1362.9000, -79.638
1363.0000, -79.026
1363.1000, -78.834
1363.2000, -79.324
1363.3000, -78.038
1363.4000, -78.747
1363.5000, -79.714
1363.6000, -79.203
1363.7000, -79.510
1363.8000, -78.907
1363.9000, -80.164
1364.0000, -79.975
1364.1000, -78.456
1364.2000, -78.965
1364.3000, -79.251
1364.4000, -79.547
1364.5000, -79.806
1364.6000, -78.885
1364.7000, -79.567
1364.8000, -80.116
1364.9000, -81.269
1365.0000, -78.441
1365.1000, -79.595
1365.2000, -79.286
1365.3000, -79.866
1365.4000, -79.800
1365.5000, -78.893
1365.6000, -80.349
1365.7000, -79.785
1365.8000, -79.572
1365.9000, -79.427
1366.0000, -79.722
1366.1000, -79.015
1366.2000, -79.293
1366.3000, -79.227
1366.4000, -79.862
1366.5000, -81.115
1366.6000, -78.036
1366.7000, -79.293
1366.8000, -79.386
1366.9000, -79.930
1367.0000, -80.477
1367.1000, -78.255
1367.2000, -78.832
1367.3000, -80.171
1367.4000, -78.401
1367.5000, -82.852
1367.6000, -77.949
1367.7000, -79.040
1367.8000, -83.024
1367.9000, -78.625
1368.0000, -80.548
1368.1000, -79.217
1368.2000, -79.114
1368.3000, -79.946
1368.4000, -79.859
1368.5000, -80.802
1368.6000, -79.115
1368.7000, -81.571
1368.8000, -79.648
1368.9000, -80.162
1369.0000, -77.911
1369.1000, -78.552
1369.2000, -81.878
1369.3000, -78.983
1369.4000, -85.778
1369.5000, -79.979
1369.6000, -80.124
1369.7000, -77.964
1369.8000, -77.278
1369.9000, -79.278
1370.0000, -80.072
1370.1000, -80.851
1370.2000, -77.745
1370.3000, -81.017
1370.4000, -79.428
1370.5000, -78.150
1370.6000, -78.698
1370.7000, -84.096
1370.8000, -79.367
1370.9000, -78.208
1371.0000, -79.502
1371.1000, -80.114
1371.2000, -80.371
1371.3000, -78.746
1371.4000, -81.522
1371.5000, -78.498
1371.6000, -80.949
1371.7000, -80.422
1371.8000, -79.889
1371.9000, -80.408
1372.0000, -79.239
1372.1000, -79.828
1372.2000, -79.460
1372.3000, -78.780
1372.4000, -81.503
1372.5000, -77.923
1372.6000, -79.445
1372.7000, -79.886
1372.8000, -79.050
1372.9000, -83.534
1373.0000, -79.045
1373.1000, -78.784
1373.2000, -80.728
1373.3000, -80.938
1373.4000, -79.128
1373.5000, -79.247
1373.6000, -77.618
1373.7000, -79.460
1373.8000, -80.498
1373.9000, -81.169
1374.0000, -78.547
1374.1000, -79.401
1374.2000, -77.610
1374.3000, -78.336
1374.4000, -80.187
1374.5000, -79.589
1374.6000, -83.239
1374.7000, -80.657
1374.8000, -79.338
1374.9000, -78.001
1375.0000, -79.020
1375.1000, -80.556
1375.2000, -81.479
1375.3000, -78.672
1375.4000, -79.569
1375.5000, -79.151
1375.6000, -79.584
1375.7000, -83.333
1375.8000, -78.366
1375.9000, -81.443
1376.0000, -77.218
1376.1000, -80.025
1376.2000, -78.625
1376.3000, -79.217
1376.4000, -81.227
1376.5000, -79.474
1376.6000, -79.694
1376.7000, -79.754
1376.8000, -78.945
1376.9000, -79.361
1377.0000, -79.317
1377.1000, -79.102
1377.2000, -79.118
1377.3000, -80.921
1377.4000, -79.054
1377.5000, -79.529
1377.6000, -79.931
1377.7000, -79.707
1377.8000, -78.590
1377.9000, -79.558
1378.0000, -81.223
1378.1000, -79.021
1378.2000, -80.637
1378.3000, -78.784
1378.4000, -78.516
1378.5000, -80.398
1378.6000, -81.227
1378.7000, -79.286
1378.8000, -80.607
1378.9000, -79.411
1379.0000, -80.403
1379.1000, -78.247
1379.2000, -80.922
1379.3000, -80.359
1379.4000, -79.480
1379.5000, -78.185
1379.6000, -79.964
1379.7000, -80.717
1379.8000, -85.042
1379.9000, -77.525
1380.0000, -82.163
1380.1000, -79.278
1380.2000, -77.856
1380.3000, -79.940
1380.4000, -78.740
1380.5000, -80.908
1380.6000, -79.663
1380.7000, -79.526
1380.8000, -79.622
1380.9000, -80.312
1381.0000, -79.498
1381.1000, -78.993
1381.2000, -80.407
1381.3000, -79.505
1381.4000, -79.747
1381.5000, -79.767
1381.6000, -80.579
1381.7000, -80.585
1381.8000, -79.413
1381.9000, -79.203
1382.0000, -79.780
1382.1000, -79.767
1382.2000, -80.259
1382.3000, -80.271
1382.4000, -79.157
1382.5000, -78.367
1382.6000, -80.873
1382.7000, -79.771
1382.8000, -80.369
1382.9000, -81.017
1383.0000, -79.236
1383.1000, -79.548
1383.2000, -79.829
1383.3000, -79.914
1383.4000, -79.547
1383.5000, -80.121
1383.6000, -78.832
1383.7000, -78.939
1383.8000, -79.217
1383.9000, -79.682
1384.0000, -79.340
1384.1000, -78.673
1384.2000, -78.678
1384.3000, -78.771
1384.4000, -80.854
1384.5000, -80.214
1384.6000, -78.263
1384.7000, -78.227
1384.8000, -85.569
1384.9000, -79.724
1385.0000, -79.794
1385.1000, -80.085
1385.2000, -80.137
1385.3000, -79.344
1385.4000, -80.392
1385.5000, -79.951
1385.6000, -78.664
1385.7000, -81.356
1385.8000, -78.201
1385.9000, -81.002
1386.0000, -79.222
1386.1000, -80.515
1386.2000, -78.449
1386.3000, -80.310
1386.4000, -78.586
1386.5000, -79.350
1386.6000, -81.379
1386.7000, -77.632
1386.8000, -82.174
1386.9000, -77.846
1387.0000, -79.087
1387.1000, -78.177
1387.2000, -82.264
1387.3000, -78.805
1387.4000, -78.744
1387.5000, -81.847
1387.6000, -78.877
1387.7000, -82.030
1387.8000, -78.785
1387.9000, -81.032
1388.0000, -78.120
1388.1000, -77.827
1388.2000, -79.979
1388.3000, -78.978
1388.4000, -77.574
1388.5000, -82.448
1388.6000, -84.326
1388.7000, -79.887
1388.8000, -79.648
1388.9000, -79.677
1389.0000, -80.500
1389.1000, -78.456
1389.2000, -77.810
1389.3000, -79.070
1389.4000, -80.097
1389.5000, -82.505
1389.6000, -76.857
1389.7000, -83.200
1389.8000, -77.771
1389.9000, -79.968
1390.0000, -76.676
1390.1000, -78.731
1390.2000, -79.476
1390.3000, -77.783
1390.4000, -83.326
1390.5000, -78.957
1390.6000, -77.913
1390.7000, -79.445
1390.8000, -78.344
1390.9000, -79.879
1391.0000, -79.398
1391.1000, -77.818
1391.2000, -78.858
1391.3000, -77.091
1391.4000, -81.612
1391.5000, -78.239
1391.6000, -78.289
1391.7000, -78.144
1391.8000, -78.227
1391.9000, -80.334
1392.0000, -79.747
1392.1000, -78.955
1392.2000, -83.222
1392.3000, -78.356
1392.4000, -79.703
1392.5000, -79.427
1392.6000, -78.534
1392.7000, -80.803
1392.8000, -79.033
1392.9000, -79.565
1393.0000, -77.085
1393.1000, -78.347
1393.2000, -82.206
1393.3000, -78.719
1393.4000, -78.543
1393.5000, -80.736
1393.6000, -79.357
1393.7000, -78.873
1393.8000, -77.590
1393.9000, -79.266
1394.0000, -79.877
1394.1000, -77.702
1394.2000, -77.714
1394.3000, -78.664
1394.4000, -79.774
1394.5000, -77.043
1394.6000, -80.058
1394.7000, -75.382
1394.8000, -77.198
1394.9000, -77.755
1395.0000, -76.637
1395.1000, -79.690
1395.2000, -78.269
1395.3000, -77.611
1395.4000, -78.670
1395.5000, -78.884
1395.6000, -82.716
1395.7000, -78.454
1395.8000, -77.863
1395.9000, -78.919
1396.0000, -78.364
1396.1000, -81.841
1396.2000, -79.345
1396.3000, -79.291
1396.4000, -78.556
1396.5000, -80.315
1396.6000, -80.220
1396.7000, -78.085
1396.8000, -81.733
1396.9000, -77.805
1397.0000, -79.164
1397.1000, -78.481
1397.2000, -78.990
1397.3000, -80.484
1397.4000, -78.351
1397.5000, -77.340
1397.6000, -78.254
1397.7000, -78.282
1397.8000, -79.125
1397.9000, -78.729
1398.0000, -77.548
1398.1000, -76.732
1398.2000, -78.808
1398.3000, -76.767
1398.4000, -79.537
1398.5000, -77.455
1398.6000, -78.067
1398.7000, -79.237
1398.8000, -78.879
1398.9000, -78.412
1399.0000, -75.534
1399.1000, -77.219
1399.2000, -78.333
1399.3000, -78.843
1399.4000, -78.099
1399.5000, -79.516
1399.6000, -78.359
1399.7000, -80.684
1399.8000, -78.224
1399.9000, -78.949
1400.0000, -78.713
1400.1000, -78.221
1400.2000, -81.889
1400.3000, -78.132
1400.4000, -79.186
1400.5000, -80.308
1400.6000, -79.163
1400.7000, -80.413
1400.8000, -78.980
1400.9000, -79.455
1401.0000, -79.008
1401.1000, -77.788
1401.2000, -79.068
1401.3000, -79.523
1401.4000, -76.288
1401.5000, -79.746
1401.6000, -78.775
1401.7000, -79.737
1401.8000, -78.225
1401.9000, -77.600
1402.0000, -78.526
1402.1000, -77.358
1402.2000, -80.909
1402.3000, -79.226
1402.4000, -78.280
1402.5000, -80.095
1402.6000, -78.878
1402.7000, -78.476
1402.8000, -79.956
1402.9000, -78.812
1403.0000, -78.528
1403.1000, -79.411
1403.2000, -79.694
1403.3000, -78.227
1403.4000, -79.808
1403.5000, -79.289
1403.6000, -80.106
1403.7000, -78.774
1403.8000, -78.596
1403.9000, -80.052
1404.0000, -79.745
1404.1000, -78.546
1404.2000, -78.695
1404.3000, -79.480
1404.4000, -78.596
1404.5000, -79.681
1404.6000, -78.852
1404.7000, -79.473
1404.8000, -78.989
1404.9000, -78.029
1405.0000, -78.643
1405.1000, -79.001
1405.2000, -79.936
1405.3000, -79.487
1405.4000, -79.812
1405.5000, -78.094
1405.6000, -78.876
1405.7000, -79.016
1405.8000, -79.673
1405.9000, -78.360
1406.0000, -79.845
1406.1000, -78.732
1406.2000, -79.352
1406.3000, -78.687
1406.4000, -79.938
1406.5000, -78.369
1406.6000, -78.538
1406.7000, -77.192
1406.8000, -83.728
1406.9000, -79.728
1407.0000, -77.282
1407.1000, -79.706
1407.2000, -78.796
1407.3000, -79.141
1407.4000, -78.766
1407.5000, -78.607
1407.6000, -78.797
1407.7000, -79.355
1407.8000, -79.190
1407.9000, -78.656
1408.0000, -79.880
1408.1000, -78.231
1408.2000, -79.424
1408.3000, -79.221
1408.4000, -78.862
1408.5000, -78.594
1408.6000, -77.582
1408.7000, -83.520
1408.8000, -77.935
1408.9000, -79.678
1409.0000, -79.315
1409.1000, -78.476
1409.2000, -78.629
1409.3000, -82.572
1409.4000, -78.088
1409.5000, -77.814
1409.6000, -77.496
1409.7000, -83.204
1409.8000, -79.639
1409.9000, -78.546
1410.0000, -80.332
1410.1000, -78.292
1410.2000, -79.473
1410.3000, -79.497
1410.4000, -78.372
1410.5000, -78.333
1410.6000, -77.712
1410.7000, -79.610
1410.8000, -81.386
1410.9000, -79.248
1411.0000, -76.246
1411.1000, -83.221
1411.2000, -78.198
1411.3000, -81.224
1411.4000, -78.699
1411.5000, -78.491
1411.6000, -79.706
1411.7000, -78.866
1411.8000, -78.878
1411.9000, -78.594
1412.0000, -78.210
1412.1000, -78.150
1412.2000, -77.305
1412.3000, -77.989
1412.4000, -81.770
1412.5000, -79.258
1412.6000, -77.918
1412.7000, -78.123
1412.8000, -79.148
1412.9000, -77.936
1413.0000, -76.544
1413.1000, -79.581
1413.2000, -77.986
1413.3000, -79.767
1413.4000, -76.292
1413.5000, -78.358
1413.6000, -76.372
1413.7000, -82.352
1413.8000, -77.168
1413.9000, -78.206
1414.0000, -77.894
1414.1000, -78.849
1414.2000, -78.070
1414.3000, -77.745
1414.4000, -81.997
1414.5000, -78.314
1414.6000, -78.145
1414.7000, -79.237
1414.8000, -76.572
1414.9000, -78.297
1415.0000, -78.802
1415.1000, -78.995
1415.2000, -81.107
1415.3000, -78.312
1415.4000, -79.512
1415.5000, -78.421
1415.6000, -78.035
1415.7000, -80.881
1415.8000, -78.436
1415.9000, -78.185
1416.0000, -78.224
1416.1000, -78.158
1416.2000, -78.494
1416.3000, -82.498
1416.4000, -79.268
1416.5000, -78.527
1416.6000, -77.667
1416.7000, -78.989
1416.8000, -77.706
1416.9000, -77.234
1417.0000, -81.833
1417.1000, -77.208
1417.2000, -84.438
1417.3000, -77.816
1417.4000, -78.709
1417.5000, -79.743
1417.6000, -79.596
1417.7000, -78.359
1417.8000, -79.580
1417.9000, -78.969
1418.0000, -79.292
1418.1000, -79.593
1418.2000, -78.171
1418.3000, -77.812
1418.4000, -79.359
1418.5000, -78.200
1418.6000, -80.902
1418.7000, -78.481
1418.8000, -78.397
1418.9000, -79.044
1419.0000, -79.396
1419.1000, -78.733
1419.2000, -79.057
1419.3000, -79.516
1419.4000, -79.795
1419.5000, -78.627
1419.6000, -79.188
1419.7000, -78.316
1419.8000, -79.583
1419.9000, -78.538
1420.0000, -80.701
1420.1000, -78.974
1420.2000, -80.492
1420.3000, -78.311
1420.4000, -79.302
1420.5000, -78.780
1420.6000, -80.245
1420.7000, -79.233
1420.8000, -78.231
1420.9000, -80.153
1421.0000, -79.563
1421.1000, -78.653
1421.2000, -79.537
1421.3000, -78.899
1421.4000, -78.278
1421.5000, -78.074
1421.6000, -78.119
1421.7000, -79.832
1421.8000, -77.950
1421.9000, -81.680
1422.0000, -78.858
1422.1000, -77.749
1422.2000, -80.303
1422.3000, -79.197
1422.4000, -77.915
1422.5000, -77.968
1422.6000, -80.119
1422.7000, -77.716
1422.8000, -79.676
1422.9000, -79.690
1423.0000, -78.685
1423.1000, -78.654
1423.2000, -79.332
1423.3000, -78.308
1423.4000, -78.970
1423.5000, -79.513
1423.6000, -78.363
1423.7000, -80.000
1423.8000, -78.116
1423.9000, -79.757
1424.0000, -78.892
1424.1000, -77.602
1424.2000, -78.689
1424.3000, -79.380
1424.4000, -79.039
1424.5000, -79.954
1424.6000, -78.121
1424.7000, -77.396
1424.8000, -79.875
1424.9000, -77.998
1425.0000, -79.201
1425.1000, -79.340
1425.2000, -77.681
1425.3000, -80.427
1425.4000, -79.158
1425.5000, -78.982
1425.6000, -78.547
1425.7000, -79.200
1425.8000, -78.001
1425.9000, -77.161
1426.0000, -80.343
1426.1000, -78.277
1426.2000, -82.104
1426.3000, -76.922
1426.4000, -78.602
1426.5000, -80.045
1426.6000, -75.866
1426.7000, -83.530
1426.8000, -76.658
1426.9000, -82.046
1427.0000, -77.165
1427.1000, -80.489
1427.2000, -78.430
1427.3000, -79.705
1427.4000, -79.734
1427.5000, -78.496
1427.6000, -79.134
1427.7000, -77.613
1427.8000, -80.153
1427.9000, -78.580
1428.0000, -79.796
1428.1000, -79.061
1428.2000, -78.069
1428.3000, -80.040
1428.4000, -77.486
1428.5000, -77.667
1428.6000, -78.848
1428.7000, -80.401
1428.8000, -78.271
1428.9000, -77.939
1429.0000, -80.147
1429.1000, -79.564
1429.2000, -79.022
1429.3000, -78.676
1429.4000, -77.832
1429.5000, -78.741
1429.6000, -78.420
1429.7000, -79.915
1429.8000, -78.156
1429.9000, -79.079
1430.0000, -79.489
1430.1000, -78.707
1430.2000, -79.273
1430.3000, -78.990
1430.4000, -78.451
1430.5000, -77.875
1430.6000, -77.399
1430.7000, -79.453
1430.8000, -79.287
1430.9000, -78.079
1431.0000, -78.103
1431.1000, -78.600
1431.2000, -77.618
1431.3000, -77.991
1431.4000, -78.090
1431.5000, -78.982
1431.6000, -78.585
1431.7000, -79.382
1431.8000, -78.607
1431.9000, -77.912
1432.0000, -78.798
1432.1000, -78.766
1432.2000, -78.332
1432.3000, -79.188
1432.4000, -78.678
1432.5000, -77.659
1432.6000, -77.992
1432.7000, -81.259
1432.8000, -78.671
1432.9000, -77.611
1433.0000, -78.211
1433.1000, -78.709
1433.2000, -78.998
1433.3000, -78.118
1433.4000, -79.696
1433.5000, -77.535
1433.6000, -78.168
1433.7000, -79.955
1433.8000, -78.021
1433.9000, -82.095
1434.0000, -77.400
1434.1000, -79.204
1434.2000, -78.764
1434.3000, -78.797
1434.4000, -81.165
1434.5000, -78.970
1434.6000, -78.629
1434.7000, -78.973
1434.8000, -79.030
1434.9000, -77.615
1435.0000, -78.291
1435.1000, -78.382
1435.2000, -79.277
1435.3000, -79.606
1435.4000, -78.516
1435.5000, -79.079
1435.6000, -78.543
1435.7000, -79.778
1435.8000, -79.634
1435.9000, -78.769
1436.0000, -77.682
1436.1000, -77.800
1436.2000, -82.121
1436.3000, -77.481
1436.4000, -82.024
1436.5000, -76.861
1436.6000, -80.579
1436.7000, -78.107
1436.8000, -79.089
1436.9000, -77.112
1437.0000, -84.240
1437.1000, -79.161
1437.2000, -78.978
1437.3000, -77.766
1437.4000, -78.547
1437.5000, -79.587
1437.6000, -78.063
1437.7000, -80.234
1437.8000, -80.691
1437.9000, -79.825
1438.0000, -78.418
1438.1000, -78.495
1438.2000, -78.239
1438.3000, -78.445
1438.4000, -77.670
1438.5000, -78.298
1438.6000, -79.882
1438.7000, -78.655
1438.8000, -78.080
1438.9000, -79.432
1439.0000, -79.378
1439.1000, -79.351
1439.2000, -77.959
1439.3000, -79.718
1439.4000, -79.073
1439.5000, -80.177
1439.6000, -78.230
1439.7000, -78.702
1439.8000, -78.125
1439.9000, -81.021
1440.0000, -78.684
1440.1000, -79.270
1440.2000, -77.961
1440.3000, -77.831
1440.4000, -81.703
1440.5000, -79.338
1440.6000, -78.766
1440.7000, -78.716
1440.8000, -78.469
1440.9000, -78.511
1441.0000, -78.516
1441.1000, -79.217
1441.2000, -78.793
1441.3000, -78.286
1441.4000, -80.283
1441.5000, -79.030
1441.6000, -79.965
1441.7000, -79.984
1441.8000, -77.636
1441.9000, -78.308
1442.0000, -79.638
1442.1000, -78.534
1442.2000, -78.254
1442.3000, -79.083
1442.4000, -79.607
1442.5000, -76.940
1442.6000, -78.089
1442.7000, -81.508
1442.8000, -77.293
1442.9000, -78.332
1443.0000, -77.634
1443.1000, -79.036
1443.2000, -79.572
1443.3000, -77.516
1443.4000, -77.502
1443.5000, -79.048
1443.6000, -77.927
1443.7000, -78.483
1443.8000, -79.039
1443.9000, -78.255
1444.0000, -78.354
1444.1000, -78.435
1444.2000, -77.179
1444.3000, -78.432
1444.4000, -78.827
1444.5000, -78.983
1444.6000, -78.154
1444.7000, -79.156
1444.8000, -77.980
1444.9000, -78.801
1445.0000, -78.390
1445.1000, -78.254
1445.2000, -78.079
1445.3000, -78.971
1445.4000, -78.131
1445.5000, -78.586
1445.6000, -79.072
1445.7000, -77.743
1445.8000, -80.617
1445.9000, -78.660
1446.0000, -78.192
1446.1000, -78.630
1446.2000, -78.261
1446.3000, -78.777
1446.4000, -78.744
1446.5000, -79.621
1446.6000, -79.156
1446.7000, -78.826
1446.8000, -78.597
1446.9000, -79.316
1447.0000, -78.066
1447.1000, -79.557
1447.2000, -78.646
1447.3000, -79.202
1447.4000, -78.980
1447.5000, -78.284
1447.6000, -77.710
1447.7000, -79.283
1447.8000, -79.824
1447.9000, -79.589
1448.0000, -78.052
1448.1000, -78.746
1448.2000, -79.701
1448.3000, -80.811
1448.4000, -79.245
1448.5000, -78.754
1448.6000, -78.152
1448.7000, -78.594
1448.8000, -79.275
1448.9000, -79.352
1449.0000, -78.864
1449.1000, -78.483
1449.2000, -79.351
1449.3000, -77.593
1449.4000, -79.992
1449.5000, -80.463
1449.6000, -78.815
1449.7000, -76.368
1449.8000, -79.973
1449.9000, -77.818
1450.0000, -79.110
1450.1000, -79.754
1450.2000, -79.745
1450.3000, -79.682
1450.4000, -78.709
1450.5000, -80.192
1450.6000, -77.273
1450.7000, -78.957
1450.8000, -79.434
1450.9000, -76.862
1451.0000, -88.563
1451.1000, -77.442
1451.2000, -81.193
1451.3000, -78.150
1451.4000, -78.695
1451.5000, -80.442
1451.6000, -80.333
1451.7000, -77.757
1451.8000, -79.840
1451.9000, -80.520
1452.0000, -78.820
1452.1000, -78.880
1452.2000, -78.723
1452.3000, -78.154
1452.4000, -80.235
1452.5000, -78.160
1452.6000, -79.448
1452.7000, -77.383
1452.8000, -79.979
1452.9000, -79.602
1453.0000, -78.667
1453.1000, -79.048
1453.2000, -81.351
1453.3000, -79.267
1453.4000, -78.887
1453.5000, -79.030
1453.6000, -79.439
1453.7000, -79.045
1453.8000, -79.466
1453.9000, -79.147
1454.0000, -78.601
1454.1000, -79.072
1454.2000, -79.287
1454.3000, -77.902
1454.4000, -80.394
1454.5000, -78.105
1454.6000, -79.007
1454.7000, -78.781
1454.8000, -78.424
1454.9000, -78.847
1455.0000, -80.725
1455.1000, -77.606
1455.2000, -78.579
1455.3000, -80.123
1455.4000, -78.992
1455.5000, -78.297
1455.6000, -78.518
1455.7000, -80.541
1455.8000, -80.331
1455.9000, -78.240
1456.0000, -78.986
1456.1000, -78.505
1456.2000, -78.511
1456.3000, -79.652
1456.4000, -79.442
1456.5000, -79.185
1456.6000, -78.721
1456.7000, -78.439
1456.8000, -79.358
1456.9000, -79.955
1457.0000, -78.363
1457.1000, -78.607
1457.2000, -79.868
1457.3000, -80.114
1457.4000, -78.484
1457.5000, -78.842
1457.6000, -79.866
1457.7000, -80.369
1457.8000, -78.719
1457.9000, -79.608
1458.0000, -80.325
1458.1000, -77.931
1458.2000, -78.888
1458.3000, -80.697
1458.4000, -78.861
1458.5000, -78.534
1458.6000, -78.052
1458.7000, -78.859
1458.8000, -78.872
1458.9000, -78.742
1459.0000, -78.778
1459.1000, -78.938
1459.2000, -79.097
1459.3000, -81.012
1459.4000, -79.171
1459.5000, -79.384
1459.6000, -79.639
1459.7000, -77.550
1459.8000, -79.970
1459.9000, -80.176
1460.0000, -78.435
1460.1000, -78.912
1460.2000, -78.526
1460.3000, -78.342
1460.4000, -79.475
1460.5000, -80.330
1460.6000, -79.779
1460.7000, -78.747
1460.8000, -79.139
1460.9000, -78.615
1461.0000, -78.832
1461.1000, -78.343
1461.2000, -79.540
1461.3000, -80.218
1461.4000, -78.511
1461.5000, -79.459
1461.6000, -78.497
1461.7000, -77.559
1461.8000, -82.464
1461.9000, -77.949
1462.0000, -79.325
1462.1000, -79.158
1462.2000, -79.599
1462.3000, -78.379
1462.4000, -78.652
1462.5000, -79.385
1462.6000, -78.219
1462.7000, -81.026
1462.8000, -78.129
1462.9000, -79.057
1463.0000, -79.605
1463.1000, -77.184
1463.2000, -78.708
1463.3000, -79.073
1463.4000, -79.178
1463.5000, -79.415
1463.6000, -79.289
1463.7000, -77.794
1463.8000, -78.978
1463.9000, -79.142
1464.0000, -77.267
1464.1000, -77.764
1464.2000, -79.492
1464.3000, -83.159
1464.4000, -76.965
1464.5000, -81.239
1464.6000, -79.381
1464.7000, -79.203
1464.8000, -78.718
1464.9000, -77.409
1465.0000, -78.076
1465.1000, -78.594
1465.2000, -79.768
1465.3000, -79.118
1465.4000, -78.016
1465.5000, -78.864
1465.6000, -77.543
1465.7000, -79.025
1465.8000, -80.654
1465.9000, -79.852
1466.0000, -78.590
1466.1000, -81.188
1466.2000, -77.802
1466.3000, -79.606
1466.4000, -80.981
1466.5000, -78.321
1466.6000, -78.800
1466.7000, -79.360
1466.8000, -78.003
1466.9000, -79.563
1467.0000, -79.404
1467.1000, -78.150
1467.2000, -79.823
1467.3000, -78.240
1467.4000, -80.153
1467.5000, -78.320
1467.6000, -79.041
1467.7000, -80.108
1467.8000, -78.348
1467.9000, -78.489
1468.0000, -80.008
1468.1000, -80.247
1468.2000, -80.378
1468.3000, -78.179
1468.4000, -79.264
1468.5000, -78.088
1468.6000, -80.751
1468.7000, -78.666
1468.8000, -78.530
1468.9000, -79.379
1469.0000, -78.832
1469.1000, -78.810
1469.2000, -78.846
1469.3000, -79.252
1469.4000, -79.711
1469.5000, -78.352
1469.6000, -78.379
1469.7000, -80.064
1469.8000, -79.030
1469.9000, -77.787
1470.0000, -79.263
1470.1000, -80.422
1470.2000, -79.058
1470.3000, -78.936
1470.4000, -78.970
1470.5000, -79.646
1470.6000, -79.433
1470.7000, -78.877
1470.8000, -78.734
1470.9000, -79.341
1471.0000, -78.579
1471.1000, -79.216
1471.2000, -79.438
1471.3000, -78.828
1471.4000, -78.642
1471.5000, -79.542
1471.6000, -78.254
1471.7000, -78.848
1471.8000, -79.436
1471.9000, -80.255
1472.0000, -79.093
1472.1000, -78.508
1472.2000, -78.878
1472.3000, -79.491
1472.4000, -78.465
1472.5000, -79.654
1472.6000, -79.136
1472.7000, -79.502
1472.8000, -78.537
1472.9000, -79.316
1473.0000, -78.716
1473.1000, -78.656
1473.2000, -80.028
1473.3000, -78.302
1473.4000, -78.667
1473.5000, -81.065
1473.6000, -79.206
1473.7000, -76.961
1473.8000, -81.860
1473.9000, -77.444
1474.0000, -80.631
1474.1000, -79.501
1474.2000, -78.395
1474.3000, -78.248
1474.4000, -78.749
1474.5000, -78.517
1474.6000, -79.640
1474.7000, -79.166
1474.8000, -78.034
1474.9000, -79.456
1475.0000, -78.770
1475.1000, -78.340
1475.2000, -79.380
1475.3000, -79.256
1475.4000, -77.757
1475.5000, -78.663
1475.6000, -79.971
1475.7000, -78.614
1475.8000, -78.757
1475.9000, -79.047
1476.0000, -78.151
1476.1000, -79.117
1476.2000, -78.444
1476.3000, -78.907
1476.4000, -79.144
1476.5000, -77.636
1476.6000, -78.620
1476.7000, -79.282
1476.8000, -78.975
1476.9000, -78.669
1477.0000, -77.630
1477.1000, -79.273
1477.2000, -79.639
1477.3000, -78.388
1477.4000, -79.149
1477.5000, -79.046
1477.6000, -79.070
1477.7000, -78.690
1477.8000, -77.116
1477.9000, -81.418
1478.0000, -78.966
1478.1000, -79.148
1478.2000, -79.167
1478.3000, -78.620
1478.4000, -78.434
1478.5000, -81.300
1478.6000, -78.579
1478.7000, -78.944
1478.8000, -77.683
1478.9000, -80.057
1479.0000, -79.206
1479.1000, -79.400
1479.2000, -78.062
1479.3000, -78.852
1479.4000, -79.406
1479.5000, -79.488
1479.6000, -78.103
1479.7000, -79.041
1479.8000, -79.296
1479.9000, -78.855
1480.0000, -78.396
1480.1000, -78.085
1480.2000, -80.159
1480.3000, -78.344
1480.4000, -80.012
1480.5000, -79.124
1480.6000, -78.083
1480.7000, -78.843
1480.8000, -78.812
1480.9000, -78.577
1481.0000, -79.155
1481.1000, -78.417
1481.2000, -78.959
1481.3000, -78.204
1481.4000, -79.043
1481.5000, -78.198
1481.6000, -78.949
1481.7000, -79.369
1481.8000, -80.435
1481.9000, -77.918
1482.0000, -77.361
1482.1000, -79.421
1482.2000, -81.186
1482.3000, -79.324
1482.4000, -78.482
1482.5000, -79.374
1482.6000, -78.205
1482.7000, -79.378
1482.8000, -78.130
1482.9000, -79.119
1483.0000, -78.844
1483.1000, -79.079
1483.2000, -78.088
1483.3000, -79.494
1483.4000, -78.665
1483.5000, -81.519
1483.6000, -78.364
1483.7000, -78.592
1483.8000, -78.789
1483.9000, -78.692
1484.0000, -78.748
1484.1000, -79.132
1484.2000, -78.269
1484.3000, -79.669
1484.4000, -79.267
1484.5000, -78.827
1484.6000, -78.776
1484.7000, -78.869
1484.8000, -78.189
1484.9000, -79.684
1485.0000, -79.639
1485.1000, -79.727
1485.2000, -78.385
1485.3000, -80.311
1485.4000, -78.823
1485.5000, -79.180
1485.6000, -78.632
1485.7000, -81.383
1485.8000, -78.063
1485.9000, -78.734
1486.0000, -78.068
1486.1000, -79.130
1486.2000, -79.257
1486.3000, -78.092
1486.4000, -78.301
1486.5000, -78.373
1486.6000, -79.373
1486.7000, -78.419
1486.8000, -78.475
1486.9000, -77.640
1487.0000, -77.317
1487.1000, -78.822
1487.2000, -78.948
1487.3000, -78.590
1487.4000, -79.905
1487.5000, -78.035
1487.6000, -78.933
1487.7000, -79.735
1487.8000, -77.071
1487.9000, -81.070
1488.0000, -78.210
1488.1000, -78.319
1488.2000, -81.031
1488.3000, -78.547
1488.4000, -77.618
1488.5000, -78.433
1488.6000, -77.556
1488.7000, -79.725
1488.8000, -82.043
1488.9000, -78.674
1489.0000, -79.457
1489.1000, -79.608
1489.2000, -78.491
1489.3000, -79.155
1489.4000, -78.654
1489.5000, -78.842
1489.6000, -78.871
1489.7000, -79.016
1489.8000, -78.874
1489.9000, -78.849
1490.0000, -78.057
1490.1000, -79.825
1490.2000, -78.694
1490.3000, -78.607
1490.4000, -78.484
1490.5000, -79.103
1490.6000, -78.202
1490.7000, -77.982
1490.8000, -79.160
1490.9000, -79.439
1491.0000, -79.401
1491.1000, -79.378
1491.2000, -80.416
1491.3000, -78.207
1491.4000, -78.630
1491.5000, -79.868
1491.6000, -78.728
1491.7000, -78.050
1491.8000, -78.336
1491.9000, -79.222
1492.0000, -80.550
1492.1000, -79.405
1492.2000, -78.544
1492.3000, -78.664
1492.4000, -79.305
1492.5000, -79.213
1492.6000, -78.441
1492.7000, -79.716
1492.8000, -79.055
1492.9000, -80.297
1493.0000, -78.525
1493.1000, -79.104
1493.2000, -78.892
1493.3000, -78.416
1493.4000, -79.691
1493.5000, -79.158
1493.6000, -79.027
1493.7000, -78.599
1493.8000, -78.809
1493.9000, -78.226
1494.0000, -78.038
1494.1000, -79.841
1494.2000, -78.893
1494.3000, -78.745
1494.4000, -79.307
1494.5000, -78.635
1494.6000, -77.941
1494.7000, -78.593
1494.8000, -78.422
1494.9000, -80.108
1495.0000, -78.018
1495.1000, -79.006
1495.2000, -79.028
1495.3000, -78.151
1495.4000, -78.692
1495.5000, -81.146
1495.6000, -79.379
1495.7000, -79.046
1495.8000, -77.810
1495.9000, -78.982
1496.0000, -78.063
1496.1000, -78.279
1496.2000, -79.475
1496.3000, -78.929
1496.4000, -78.916
1496.5000, -78.443
1496.6000, -79.450
1496.7000, -78.406
1496.8000, -78.124
1496.9000, -79.970
1497.0000, -78.492
1497.1000, -78.862
1497.2000, -78.940
1497.3000, -77.935
1497.4000, -78.793
1497.5000, -79.771
1497.6000, -79.278
1497.7000, -80.379
1497.8000, -77.222
1497.9000, -78.308
1498.0000, -80.534
1498.1000, -78.257
1498.2000, -79.824
1498.3000, -78.874
1498.4000, -78.259
1498.5000, -78.505
1498.6000, -80.172
1498.7000, -78.274
1498.8000, -78.970
1498.9000, -77.966
1499.0000, -81.542
1499.1000, -78.431
1499.2000, -79.641
1499.3000, -78.729
1499.4000, -79.117
1499.5000, -78.588
1499.6000, -78.213
1499.7000, -79.875
1499.8000, -79.667
1499.9000, -78.475
1500.0000, -78.746
1500.1000, -78.914
1500.2000, -78.690
1500.3000, -79.115
1500.4000, -78.408
1500.5000, -79.255
1500.6000, -78.702
1500.7000, -78.814
1500.8000, -78.685
1500.9000, -78.217
1501.0000, -78.690
1501.1000, -79.609
1501.2000, -78.955
1501.3000, -78.928
1501.4000, -78.505
1501.5000, -78.776
1501.6000, -77.352
1501.7000, -79.250
1501.8000, -79.573
1501.9000, -79.255
1502.0000, -78.394
1502.1000, -78.801
1502.2000, -78.827
1502.3000, -78.964
1502.4000, -78.105
1502.5000, -80.008
1502.6000, -79.138
1502.7000, -77.879
1502.8000, -79.524
1502.9000, -77.856
1503.0000, -80.509
1503.1000, -78.638
1503.2000, -78.593
1503.3000, -78.118
1503.4000, -78.101
1503.5000, -79.169
1503.6000, -80.161
1503.7000, -78.843
1503.8000, -78.313
1503.9000, -78.509
1504.0000, -78.375
1504.1000, -80.548
1504.2000, -78.065
1504.3000, -79.209
1504.4000, -79.819
1504.5000, -78.659
1504.6000, -79.243
1504.7000, -78.159
1504.8000, -79.629
1504.9000, -78.636
1505.0000, -79.035
1505.1000, -78.502
1505.2000, -79.340
1505.3000, -77.718
1505.4000, -78.873
1505.5000, -78.767
1505.6000, -78.458
1505.7000, -80.850
1505.8000, -78.210
1505.9000, -79.198
1506.0000, -78.116
1506.1000, -78.260
1506.2000, -79.596
1506.3000, -78.968
1506.4000, -77.417
1506.5000, -80.358
1506.6000, -78.001
1506.7000, -78.870
1506.8000, -78.507
1506.9000, -78.112
1507.0000, -78.603
1507.1000, -79.198
1507.2000, -78.992
1507.3000, -78.682
1507.4000, -78.398
1507.5000, -78.505
1507.6000, -77.722
1507.7000, -78.686
1507.8000, -81.493
1507.9000, -78.632
1508.0000, -79.199
1508.1000, -78.967
1508.2000, -78.556
1508.3000, -78.942
1508.4000, -78.933
1508.5000, -78.420
1508.6000, -78.326
1508.7000, -78.039
1508.8000, -79.368
1508.9000, -78.060
1509.0000, -78.301
1509.1000, -78.515
1509.2000, -78.961
1509.3000, -78.938
1509.4000, -79.110
1509.5000, -77.960
1509.6000, -79.036
1509.7000, -78.768
1509.8000, -78.429
1509.9000, -78.830
1510.0000, -78.806
1510.1000, -78.395
1510.2000, -78.734
1510.3000, -79.357
1510.4000, -78.431
1510.5000, -78.967
1510.6000, -79.284
1510.7000, -79.167
1510.8000, -78.331
1510.9000, -80.346
1511.0000, -79.827
1511.1000, -78.092
1511.2000, -77.505
1511.3000, -77.489
1511.4000, -80.227
1511.5000, -79.184
1511.6000, -78.543
1511.7000, -78.102
1511.8000, -77.461
1511.9000, -81.526
1512.0000, -76.290
1512.1000, -81.302
1512.2000, -77.771
1512.3000, -82.290
1512.4000, -79.273
1512.5000, -77.404
1512.6000, -79.747
1512.7000, -79.206
1512.8000, -80.282
1512.9000, -78.409
1513.0000, -78.067
1513.1000, -76.845
1513.2000, -80.678
1513.3000, -78.383
1513.4000, -77.734
1513.5000, -79.073
1513.6000, -78.568
1513.7000, -79.179
1513.8000, -78.170
1513.9000, -79.785
1514.0000, -78.543
1514.1000, -78.596
1514.2000, -78.394
1514.3000, -78.492
1514.4000, -77.702
1514.5000, -77.262
1514.6000, -80.162
1514.7000, -78.518
1514.8000, -78.324
1514.9000, -78.274
1515.0000, -78.404
1515.1000, -78.906
1515.2000, -77.632
1515.3000, -79.348
1515.4000, -79.295
1515.5000, -78.136
1515.6000, -78.048
1515.7000, -79.572
1515.8000, -78.209
1515.9000, -78.570
1516.0000, -78.202
1516.1000, -78.698
1516.2000, -79.188
1516.3000, -77.889
1516.4000, -77.692
1516.5000, -78.994
1516.6000, -77.804
1516.7000, -79.243
1516.8000, -77.922
1516.9000, -78.246
1517.0000, -79.132
1517.1000, -78.139
1517.2000, -78.519
1517.3000, -78.186
1517.4000, -78.234
1517.5000, -78.179
1517.6000, -78.377
1517.7000, -78.098
1517.8000, -78.047
1517.9000, -78.623
1518.0000, -76.750
1518.1000, -80.881
1518.2000, -78.395
1518.3000, -78.050
1518.4000, -78.630
1518.5000, -78.730
1518.6000, -78.470
1518.7000, -77.882
1518.8000, -78.669
1518.9000, -78.546
1519.0000, -78.783
1519.1000, -78.300
1519.2000, -78.186
1519.3000, -78.914
1519.4000, -78.812
1519.5000, -77.283
1519.6000, -79.083
1519.7000, -78.217
1519.8000, -77.853
1519.9000, -78.940
1520.0000, -78.528
1520.1000, -78.329
1520.2000, -78.277
1520.3000, -78.796
1520.4000, -78.203
1520.5000, -78.349
1520.6000, -79.246
1520.7000, -79.571
1520.8000, -78.719
1520.9000, -78.014
1521.0000, -78.003
1521.1000, -79.495
1521.2000, -77.640
1521.3000, -77.637
1521.4000, -77.747
1521.5000, -80.566
1521.6000, -78.781
1521.7000, -78.079
1521.8000, -77.400
1521.9000, -79.737
1522.0000, -79.268
1522.1000, -78.446
1522.2000, -76.587
1522.3000, -81.147
1522.4000, -78.044
1522.5000, -77.393
1522.6000, -78.593
1522.7000, -79.087
1522.8000, -77.587
1522.9000, -77.872
1523.0000, -76.966
1523.1000, -78.436
1523.2000, -79.463
1523.3000, -78.253
1523.4000, -78.998
1523.5000, -78.008
1523.6000, -77.750
1523.7000, -79.552
1523.8000, -78.541
1523.9000, -80.403
1524.0000, -77.344
1524.1000, -78.270
1524.2000, -79.021
1524.3000, -78.150
1524.4000, -78.078
1524.5000, -78.039
1524.6000, -78.117
1524.7000, -78.452
1524.8000, -77.838
1524.9000, -78.542
1525.0000, -78.614
1525.1000, -78.380
1525.2000, -79.029
1525.3000, -77.939
1525.4000, -78.898
1525.5000, -77.453
1525.6000, -77.989
1525.7000, -79.660
1525.8000, -78.851
1525.9000, -78.321
1526.0000, -78.030
1526.1000, -78.906
1526.2000, -77.306
1526.3000, -78.490
1526.4000, -77.833
1526.5000, -78.806
1526.6000, -79.403
1526.7000, -78.391
1526.8000, -78.271
1526.9000, -77.778
1527.0000, -78.129
1527.1000, -79.021
1527.2000, -78.728
1527.3000, -78.582
1527.4000, -79.210
1527.5000, -78.544
1527.6000, -78.740
1527.7000, -78.015
1527.8000, -78.180
1527.9000, -78.211
1528.0000, -77.710
1528.1000, -77.734
1528.2000, -78.684
1528.3000, -77.973
1528.4000, -78.309
1528.5000, -77.920
1528.6000, -78.255
1528.7000, -77.795
1528.8000, -77.826
1528.9000, -78.587
1529.0000, -77.567
1529.1000, -79.204
1529.2000, -77.933
1529.3000, -79.576
1529.4000, -78.053
1529.5000, -78.086
1529.6000, -78.277
1529.7000, -78.036
1529.8000, -78.241
1529.9000, -78.045
1530.0000, -78.704
1530.1000, -78.442
1530.2000, -77.339
1530.3000, -78.400
1530.4000, -78.156
1530.5000, -78.492
1530.6000, -77.941
1530.7000, -77.832
1530.8000, -78.215
1530.9000, -77.439
1531.0000, -77.376
1531.1000, -79.866
1531.2000, -77.776
1531.3000, -77.562
1531.4000, -79.327
1531.5000, -77.597
1531.6000, -78.315
1531.7000, -76.799
1531.8000, -79.139
1531.9000, -79.249
1532.0000, -77.248
1532.1000, -78.680
1532.2000, -78.543
1532.3000, -79.069
1532.4000, -77.567
1532.5000, -78.864
1532.6000, -77.724
1532.7000, -79.289
1532.8000, -76.752
1532.9000, -77.516
1533.0000, -79.079
1533.1000, -78.547
1533.2000, -78.606
1533.3000, -79.173
1533.4000, -78.008
1533.5000, -79.207
1533.6000, -78.438
1533.7000, -78.059
1533.8000, -77.491
1533.9000, -77.797
1534.0000, -78.094
1534.1000, -78.216
1534.2000, -78.319
1534.3000, -77.454
1534.4000, -77.420
1534.5000, -78.778
1534.6000, -78.047
1534.7000, -77.940
1534.8000, -77.918
1534.9000, -78.082
1535.0000, -77.751
1535.1000, -77.099
1535.2000, -79.523
1535.3000, -77.154
1535.4000, -79.389
1535.5000, -77.281
1535.6000, -75.957
1535.7000, -78.145
1535.8000, -79.734
1535.9000, -80.921
1536.0000, -76.684
1536.1000, -79.218
1536.2000, -77.821
1536.3000, -78.289
1536.4000, -77.884
1536.5000, -78.487
1536.6000, -77.986
1536.7000, -78.162
1536.8000, -78.264
1536.9000, -78.574
1537.0000, -79.244
1537.1000, -77.583
1537.2000, -78.211
1537.3000, -78.281
1537.4000, -79.821
1537.5000, -78.163
1537.6000, -77.164
1537.7000, -78.701
1537.8000, -77.623
1537.9000, -78.602
1538.0000, -77.516
1538.1000, -78.565
1538.2000, -77.771
1538.3000, -78.116
1538.4000, -78.223
1538.5000, -78.480
1538.6000, -78.191
1538.7000, -78.019
1538.8000, -77.474
1538.9000, -78.507
1539.0000, -77.505
1539.1000, -78.888
1539.2000, -77.722
1539.3000, -77.825
1539.4000, -78.085
1539.5000, -77.656
1539.6000, -78.031
1539.7000, -77.794
1539.8000, -78.764
1539.9000, -77.969
1540.0000, -78.778
1540.1000, -77.704
1540.2000, -78.893
1540.3000, -78.907
1540.4000, -77.822
1540.5000, -78.386
1540.6000, -77.782
1540.7000, -78.650
1540.8000, -77.739
1540.9000, -78.003
1541.0000, -77.757
1541.1000, -78.124
1541.2000, -77.424
1541.3000, -77.746
1541.4000, -78.532
1541.5000, -77.689
1541.6000, -77.570
1541.7000, -78.496
1541.8000, -77.306
1541.9000, -76.943
1542.0000, -79.269
1542.1000, -78.247
1542.2000, -77.104
1542.3000, -78.414
1542.4000, -78.734
1542.5000, -78.272
1542.6000, -77.302
1542.7000, -78.843
1542.8000, -77.821
1542.9000, -78.647
1543.0000, -76.782
1543.1000, -76.739
1543.2000, -78.293
1543.3000, -79.170
1543.4000, -78.145
1543.5000, -77.738
1543.6000, -77.206
1543.7000, -79.012
1543.8000, -77.442
1543.9000, -77.861
1544.0000, -78.315
1544.1000, -78.977
1544.2000, -77.387
1544.3000, -79.158
1544.4000, -77.487
1544.5000, -77.246
1544.6000, -78.469
1544.7000, -78.089
1544.8000, -76.949
1544.9000, -78.659
1545.0000, -78.950
1545.1000, -77.595
1545.2000, -77.006
1545.3000, -78.150
1545.4000, -78.514
1545.5000, -77.809
1545.6000, -77.440
1545.7000, -77.729
1545.8000, -79.599
1545.9000, -78.887
1546.0000, -77.665
1546.1000, -77.624
1546.2000, -78.608
1546.3000, -77.152
1546.4000, -79.580
1546.5000, -77.946
1546.6000, -77.639
1546.7000, -78.491
1546.8000, -78.096
1546.9000, -77.628
1547.0000, -78.126
1547.1000, -78.141
1547.2000, -78.631
1547.3000, -77.603
1547.4000, -77.360
1547.5000, -78.621
1547.6000, -77.240
1547.7000, -77.300
1547.8000, -79.083
1547.9000, -77.224
1548.0000, -78.066
1548.1000, -79.260
1548.2000, -78.038
1548.3000, -78.653
1548.4000, -78.436
1548.5000, -77.769
1548.6000, -77.367
1548.7000, -77.502
1548.8000, -77.021
1548.9000, -81.338
1549.0000, -77.291
1549.1000, -77.145
1549.2000, -79.346
1549.3000, -78.312
1549.4000, -77.285
1549.5000, -78.005
1549.6000, -78.101
1549.7000, -76.981
1549.8000, -76.908
1549.9000, -79.344
1550.0000, -77.986
1550.1000, -76.813
1550.2000, -77.385
1550.3000, -77.823
1550.4000, -77.774
1550.5000, -76.528
1550.6000, -78.827
1550.7000, -77.844
1550.8000, -77.384
1550.9000, -77.626
1551.0000, -78.840
1551.1000, -77.173
1551.2000, -78.756
1551.3000, -78.138
1551.4000, -77.438
1551.5000, -77.288
1551.6000, -78.921
1551.7000, -77.977
1551.8000, -77.847
1551.9000, -78.404
1552.0000, -77.275
1552.1000, -78.469
1552.2000, -78.204
1552.3000, -77.967
1552.4000, -77.702
1552.5000, -77.527
1552.6000, -78.081
1552.7000, -78.171
1552.8000, -77.095
1552.9000, -76.768
1553.0000, -77.556
1553.1000, -79.903
1553.2000, -77.175
1553.3000, -78.018
1553.4000, -77.841
1553.5000, -78.276
1553.6000, -77.768
1553.7000, -78.089
1553.8000, -78.222
1553.9000, -77.214
1554.0000, -77.420
1554.1000, -79.597
1554.2000, -76.808
1554.3000, -78.614
1554.4000, -77.850
1554.5000, -77.919
1554.6000, -76.575
1554.7000, -77.549
1554.8000, -78.026
1554.9000, -78.897
1555.0000, -78.210
1555.1000, -78.554
1555.2000, -77.442
1555.3000, -77.740
1555.4000, -77.116
1555.5000, -78.312
1555.6000, -77.775
1555.7000, -77.895
1555.8000, -77.655
1555.9000, -77.584
1556.0000, -78.367
1556.1000, -78.066
1556.2000, -78.190
1556.3000, -77.603
1556.4000, -78.215
1556.5000, -78.090
1556.6000, -78.584
1556.7000, -77.100
1556.8000, -77.980
1556.9000, -77.395
1557.0000, -76.852
1557.1000, -77.936
1557.2000, -77.934
1557.3000, -78.025
1557.4000, -77.915
1557.5000, -78.341
1557.6000, -77.170
1557.7000, -79.729
1557.8000, -76.965
1557.9000, -77.155
1558.0000, -78.575
1558.1000, -77.737
1558.2000, -78.214
1558.3000, -77.862
1558.4000, -78.000
1558.5000, -77.124
1558.6000, -78.713
1558.7000, -77.379
1558.8000, -77.495
1558.9000, -78.350
1559.0000, -78.206
1559.1000, -77.426
1559.2000, -78.021
1559.3000, -76.886
1559.4000, -78.828
1559.5000, -78.398
1559.6000, -77.954
1559.7000, -76.333
1559.8000, -80.642
1559.9000, -75.524
1560.0000, -78.650
1560.1000, -77.524
1560.2000, -77.357
1560.3000, -77.226
1560.4000, -79.258
1560.5000, -77.212
1560.6000, -79.989
1560.7000, -77.776
1560.8000, -76.426
1560.9000, -76.528
1561.0000, -81.218
1561.1000, -76.526
1561.2000, -77.780
1561.3000, -76.791
1561.4000, -79.240
1561.5000, -78.008
1561.6000, -79.133
1561.7000, -78.539
1561.8000, -77.944
1561.9000, -77.736
1562.0000, -77.333
1562.1000, -77.838
1562.2000, -78.797
1562.3000, -77.709
1562.4000, -77.912
1562.5000, -77.607
1562.6000, -76.878
1562.7000, -77.751
1562.8000, -77.589
1562.9000, -78.236
1563.0000, -78.531
1563.1000, -76.497
1563.2000, -77.087
1563.3000, -79.042
1563.4000, -77.375
1563.5000, -79.413
1563.6000, -77.981
1563.7000, -77.565
1563.8000, -77.495
1563.9000, -78.243
1564.0000, -78.219
1564.1000, -77.894
1564.2000, -78.012
1564.3000, -77.294
1564.4000, -77.088
1564.5000, -77.767
1564.6000, -77.507
1564.7000, -78.381
1564.8000, -78.150
1564.9000, -78.185
1565.0000, -77.600
1565.1000, -76.959
1565.2000, -77.308
1565.3000, -78.470
1565.4000, -77.682
1565.5000, -77.911
1565.6000, -77.196
1565.7000, -77.798
1565.8000, -77.703
1565.9000, -78.820
1566.0000, -77.322
1566.1000, -78.368
1566.2000, -76.960
1566.3000, -78.036
1566.4000, -77.728
1566.5000, -77.519
1566.6000, -77.775
1566.7000, -78.649
1566.8000, -77.911
1566.9000, -76.849
1567.0000, -78.025
1567.1000, -76.991
1567.2000, -79.473
1567.3000, -77.618
1567.4000, -78.225
1567.5000, -77.125
1567.6000, -77.326
1567.7000, -78.394
1567.8000, -77.733
1567.9000, -78.052
1568.0000, -77.109
1568.1000, -76.913
1568.2000, -78.871
1568.3000, -77.473
1568.4000, -78.058
1568.5000, -77.559
1568.6000, -78.447
1568.7000, -76.168
1568.8000, -79.532
1568.9000, -77.933
1569.0000, -77.549
1569.1000, -78.040
1569.2000, -78.053
1569.3000, -76.838
1569.4000, -77.806
1569.5000, -78.352
1569.6000, -76.695
1569.7000, -78.786
1569.8000, -77.820
1569.9000, -78.654
1570.0000, -77.101
1570.1000, -77.278
1570.2000, -77.938
1570.3000, -77.215
1570.4000, -77.747
1570.5000, -77.983
1570.6000, -77.988
1570.7000, -77.314
1570.8000, -77.652
1570.9000, -76.898
1571.0000, -77.319
1571.1000, -77.526
1571.2000, -77.634
1571.3000, -78.030
1571.4000, -78.211
1571.5000, -77.270
1571.6000, -77.739
1571.7000, -77.765
1571.8000, -77.762
1571.9000, -77.475
1572.0000, -77.635
1572.1000, -77.742
1572.2000, -77.764
1572.3000, -77.410
1572.4000, -77.537
1572.5000, -77.591
1572.6000, -77.548
1572.7000, -77.819
1572.8000, -77.361
1572.9000, -77.749
1573.0000, -77.281
1573.1000, -78.219
1573.2000, -78.658
1573.3000, -77.267
1573.4000, -78.438
1573.5000, -77.316
1573.6000, -77.527
1573.7000, -78.911
1573.8000, -77.209
1573.9000, -77.263
1574.0000, -78.403
1574.1000, -77.468
1574.2000, -78.169
1574.3000, -76.736
1574.4000, -79.102
1574.5000, -75.722
1574.6000, -77.828
1574.7000, -80.039
1574.8000, -76.651
1574.9000, -77.450
1575.0000, -77.503
1575.1000, -76.501
1575.2000, -77.040
1575.3000, -79.424
1575.4000, -77.747
1575.5000, -77.349
1575.6000, -78.195
1575.7000, -76.573
1575.8000, -78.107
1575.9000, -79.330
1576.0000, -75.858
1576.1000, -76.369
1576.2000, -78.469
1576.3000, -77.557
1576.4000, -80.127
1576.5000, -76.702
1576.6000, -78.280
1576.7000, -79.479
1576.8000, -77.741
1576.9000, -78.268
1577.0000, -77.001
1577.1000, -75.695
1577.2000, -79.451
1577.3000, -76.996
1577.4000, -77.392
1577.5000, -78.852
1577.6000, -78.300
1577.7000, -76.985
1577.8000, -78.322
1577.9000, -76.650
1578.0000, -79.093
1578.1000, -79.056
1578.2000, -76.067
1578.3000, -78.371
1578.4000, -77.018
1578.5000, -77.752
1578.6000, -77.754
1578.7000, -78.190
1578.8000, -76.489
1578.9000, -77.958
1579.0000, -77.575
1579.1000, -76.746
1579.2000, -77.749
1579.3000, -78.300
1579.4000, -77.008
1579.5000, -77.249
1579.6000, -78.083
1579.7000, -76.431
1579.8000, -77.587
1579.9000, -78.719
1580.0000, -77.494
1580.1000, -77.189
1580.2000, -77.094
1580.3000, -77.488
1580.4000, -77.619
1580.5000, -78.155
1580.6000, -77.379
1580.7000, -76.540
1580.8000, -77.669
1580.9000, -77.258
1581.0000, -77.131
1581.1000, -78.627
1581.2000, -78.068
1581.3000, -77.662
1581.4000, -78.015
1581.5000, -77.827
1581.6000, -76.432
1581.7000, -77.381
1581.8000, -79.258
1581.9000, -77.195
1582.0000, -77.138
1582.1000, -77.855
1582.2000, -78.057
1582.3000, -77.481
1582.4000, -77.975
1582.5000, -77.321
1582.6000, -77.713
1582.7000, -77.732
1582.8000, -78.083
1582.9000, -78.063
1583.0000, -77.179
1583.1000, -77.277
1583.2000, -77.515
1583.3000, -78.351
1583.4000, -77.085
1583.5000, -76.619
1583.6000, -77.794
1583.7000, -77.413
1583.8000, -77.264
1583.9000, -77.194
1584.0000, -77.634
1584.1000, -78.076
1584.2000, -78.191
1584.3000, -77.072
1584.4000, -77.596
1584.5000, -77.657
1584.6000, -77.290
1584.7000, -78.382
1584.8000, -77.662
1584.9000, -77.029
1585.0000, -78.128
1585.1000, -77.048
1585.2000, -77.802
1585.3000, -77.652
1585.4000, -77.337
1585.5000, -77.278
1585.6000, -78.142
1585.7000, -77.405
1585.8000, -77.992
1585.9000, -77.796
1586.0000, -77.785
1586.1000, -77.144
1586.2000, -77.080
1586.3000, -78.564
1586.4000, -77.115
1586.5000, -78.419
1586.6000, -77.461
1586.7000, -77.604
1586.8000, -77.251
1586.9000, -76.985
1587.0000, -77.777
1587.1000, -77.891
1587.2000, -77.982
1587.3000, -77.284
1587.4000, -77.114
1587.5000, -78.015
1587.6000, -77.451
1587.7000, -77.607
1587.8000, -77.356
1587.9000, -77.258
1588.0000, -77.610
1588.1000, -77.844
1588.2000, -77.913
1588.3000, -77.446
1588.4000, -77.521
1588.5000, -77.617
1588.6000, -76.834
1588.7000, -76.439
1588.8000, -78.872
1588.9000, -77.089
1589.0000, -77.620
1589.1000, -77.759
1589.2000, -77.205
1589.3000, -77.311
1589.4000, -76.719
1589.5000, -78.150
1589.6000, -77.084
1589.7000, -77.271
1589.8000, -77.751
1589.9000, -77.208
1590.0000, -77.182
1590.1000, -78.449
1590.2000, -77.835
1590.3000, -76.388
1590.4000, -78.463
1590.5000, -78.115
1590.6000, -77.007
1590.7000, -77.416
1590.8000, -77.459
1590.9000, -77.255
1591.0000, -77.691
1591.1000, -76.657
1591.2000, -77.936
1591.3000, -77.464
1591.4000, -77.345
1591.5000, -76.454
1591.6000, -81.222
1591.7000, -77.649
1591.8000, -76.280
1591.9000, -79.036
1592.0000, -78.173
1592.1000, -77.670
1592.2000, -78.162
1592.3000, -77.544
1592.4000, -78.283
1592.5000, -77.133
1592.6000, -77.315
1592.7000, -78.611
1592.8000, -77.375
1592.9000, -77.711
1593.0000, -78.029
1593.1000, -77.497
1593.2000, -76.690
1593.3000, -77.529
1593.4000, -77.518
1593.5000, -77.672
1593.6000, -76.975
1593.7000, -77.303
1593.8000, -78.609
1593.9000, -77.152
1594.0000, -77.937
1594.1000, -77.209
1594.2000, -78.049
1594.3000, -78.148
1594.4000, -77.016
1594.5000, -77.943
1594.6000, -78.115
1594.7000, -77.019
1594.8000, -77.772
1594.9000, -77.363
1595.0000, -77.491
1595.1000, -78.078
1595.2000, -77.040
1595.3000, -77.907
1595.4000, -77.725
1595.5000, -77.740
1595.6000, -77.601
1595.7000, -77.326
1595.8000, -77.108
1595.9000, -76.852
1596.0000, -77.001
1596.1000, -78.360
1596.2000, -77.301
1596.3000, -75.803
1596.4000, -77.412
1596.5000, -78.119
1596.6000, -78.314
1596.7000, -77.666
1596.8000, -75.948
1596.9000, -78.795
1597.0000, -78.191
1597.1000, -77.633
1597.2000, -77.434
1597.3000, -78.425
1597.4000, -76.260
1597.5000, -77.835
1597.6000, -77.846
1597.7000, -77.000
1597.8000, -76.563
1597.9000, -77.117
1598.0000, -78.890
1598.1000, -77.571
1598.2000, -76.665
1598.3000, -78.130
1598.4000, -77.461
1598.5000, -77.893
1598.6000, -78.292
1598.7000, -76.781
1598.8000, -76.846
1598.9000, -77.065
1599.0000, -78.813
1599.1000, -76.440
1599.2000, -77.793
1599.3000, -76.575
1599.4000, -77.826
1599.5000, -76.989
1599.6000, -77.801
1599.7000, -78.233
1599.8000, -76.841
1599.9000, -77.776
1600.0000, -77.631
1600.1000, -77.846
1600.2000, -76.639
1600.3000, -77.732
1600.4000, -76.766
1600.5000, -78.507
1600.6000, -76.560
1600.7000, -77.369
1600.8000, -78.916
1600.9000, -77.581
1601.0000, -76.710
1601.1000, -78.272
1601.2000, -76.804
1601.3000, -78.389
1601.4000, -76.160
1601.5000, -77.526
1601.6000, -76.903
1601.7000, -78.053
1601.8000, -77.348
1601.9000, -76.925
1602.0000, -77.606
1602.1000, -77.978
1602.2000, -77.041
1602.3000, -78.477
1602.4000, -77.339
1602.5000, -75.622
1602.6000, -78.956
1602.7000, -76.487
1602.8000, -77.428
1602.9000, -77.961
1603.0000, -78.112
1603.1000, -76.847
1603.2000, -77.076
1603.3000, -78.596
1603.4000, -77.081
1603.5000, -77.385
1603.6000, -77.703
1603.7000, -76.839
1603.8000, -76.971
1603.9000, -79.875
1604.0000, -78.006
1604.1000, -76.817
1604.2000, -77.671
1604.3000, -76.636
1604.4000, -77.413
1604.5000, -77.323
1604.6000, -77.518
1604.7000, -77.481
1604.8000, -76.763
1604.9000, -77.688
1605.0000, -76.963
1605.1000, -77.715
1605.2000, -77.154
1605.3000, -76.889
1605.4000, -77.606
1605.5000, -77.299
1605.6000, -75.780
1605.7000, -80.646
1605.8000, -76.786
1605.9000, -78.167
1606.0000, -77.361
1606.1000, -77.065
1606.2000, -77.191
1606.3000, -78.759
1606.4000, -77.546
1606.5000, -78.076
1606.6000, -75.939
1606.7000, -77.559
1606.8000, -76.433
1606.9000, -78.867
1607.0000, -77.804
1607.1000, -76.643
1607.2000, -77.323
1607.3000, -76.960
1607.4000, -78.640
1607.5000, -76.718
1607.6000, -76.948
1607.7000, -77.209
1607.8000, -77.941
1607.9000, -77.029
1608.0000, -77.222
1608.1000, -77.750
1608.2000, -78.248
1608.3000, -77.713
1608.4000, -76.141
1608.5000, -77.358
1608.6000, -78.021
1608.7000, -77.340
1608.8000, -78.030
1608.9000, -76.331
1609.0000, -77.166
1609.1000, -76.449
1609.2000, -77.523
1609.3000, -77.619
1609.4000, -76.875
1609.5000, -77.182
1609.6000, -77.726
1609.7000, -77.267
1609.8000, -76.592
1609.9000, -77.916
1610.0000, -76.190
1610.1000, -78.493
1610.2000, -77.268
1610.3000, -77.868
1610.4000, -76.898
1610.5000, -77.403
1610.6000, -77.634
1610.7000, -76.776
1610.8000, -76.068
1610.9000, -78.093
1611.0000, -76.628
1611.1000, -78.353
1611.2000, -77.697
1611.3000, -77.864
1611.4000, -76.121
1611.5000, -78.575
1611.6000, -75.927
1611.7000, -78.343
1611.8000, -75.498
1611.9000, -79.997
1612.0000, -75.220
1612.1000, -79.088
1612.2000, -75.731
1612.3000, -77.737
1612.4000, -77.425
1612.5000, -77.471
1612.6000, -76.025
1612.7000, -79.722
1612.8000, -77.664
1612.9000, -76.871
1613.0000, -75.518
1613.1000, -77.307
1613.2000, -79.109
1613.3000, -78.430
1613.4000, -75.938
1613.5000, -79.056
1613.6000, -77.407
1613.7000, -77.357
1613.8000, -76.936
1613.9000, -76.368
1614.0000, -77.823
1614.1000, -77.570
1614.2000, -77.131
1614.3000, -76.913
1614.4000, -76.582
1614.5000, -76.350
1614.6000, -77.302
1614.7000, -77.236
1614.8000, -78.020
1614.9000, -77.756
1615.0000, -77.300
1615.1000, -77.202
1615.2000, -78.258
1615.3000, -76.140
1615.4000, -76.555
1615.5000, -76.358
1615.6000, -77.162
1615.7000, -76.165
1615.8000, -78.482
1615.9000, -76.574
1616.0000, -76.882
1616.1000, -76.572
1616.2000, -77.241
1616.3000, -75.679
1616.4000, -76.618
1616.5000, -77.156
1616.6000, -77.171
1616.7000, -75.921
1616.8000, -75.593
1616.9000, -76.731
1617.0000, -76.265
1617.1000, -76.173
1617.2000, -74.885
1617.3000, -77.757
1617.4000, -75.071
1617.5000, -77.327
1617.6000, -76.004
1617.7000, -75.539
1617.8000, -76.067
1617.9000, -76.766
1618.0000, -75.840
1618.1000, -75.703
1618.2000, -75.050
1618.3000, -75.845
1618.4000, -75.569
1618.5000, -75.631
1618.6000, -75.226
1618.7000, -74.926
1618.8000, -75.471
1618.9000, -74.622
1619.0000, -74.607
1619.1000, -75.002
1619.2000, -74.988
1619.3000, -74.487
1619.4000, -74.461
1619.5000, -74.265
1619.6000, -74.835
1619.7000, -75.340
1619.8000, -74.973
1619.9000, -74.813
1620.0000, -75.046
1620.1000, -76.701
1620.2000, -75.949
1620.3000, -76.405
1620.4000, -76.657
1620.5000, -77.393
1620.6000, -76.991
1620.7000, -77.658
1620.8000, -76.660
1620.9000, -77.646
1621.0000, -77.393
1621.1000, -77.397
1621.2000, -76.037
1621.3000, -75.917
1621.4000, -81.020
1621.5000, -76.880
1621.6000, -76.582
1621.7000, -77.153
1621.8000, -75.955
1621.9000, -76.956
1622.0000, -76.100
1622.1000, -78.154
1622.2000, -78.046
1622.3000, -75.467
1622.4000, -79.158
1622.5000, -76.006
1622.6000, -75.665
1622.7000, -78.329
1622.8000, -77.020
1622.9000, -77.962
1623.0000, -77.912
1623.1000, -75.889
1623.2000, -77.056
1623.3000, -78.640
1623.4000, -77.453
1623.5000, -76.491
1623.6000, -77.389
1623.7000, -76.473
1623.8000, -77.597
1623.9000, -76.513
1624.0000, -76.622
1624.1000, -76.755
1624.2000, -76.919
1624.3000, -76.764
1624.4000, -76.448
1624.5000, -76.560
1624.6000, -78.099
1624.7000, -75.649
1624.8000, -79.953
1624.9000, -76.327
1625.0000, -76.814
1625.1000, -76.408
1625.2000, -77.018
1625.3000, -76.209
1625.4000, -76.934
1625.5000, -76.962
1625.6000, -77.157
1625.7000, -76.072
1625.8000, -77.843
1625.9000, -76.648
1626.0000, -76.421
1626.1000, -77.878
1626.2000, -76.625
1626.3000, -76.888
1626.4000, -75.953
1626.5000, -78.177
1626.6000, -76.198
1626.7000, -76.630
1626.8000, -77.341
1626.9000, -76.723
1627.0000, -76.801
1627.1000, -77.454
1627.2000, -76.341
1627.3000, -75.784
1627.4000, -77.063
1627.5000, -77.649
1627.6000, -77.192
1627.7000, -75.561
1627.8000, -77.108
1627.9000, -76.688
1628.0000, -75.728
1628.1000, -76.223
1628.2000, -77.335
1628.3000, -76.146
1628.4000, -76.922
1628.5000, -75.842
1628.6000, -76.660
1628.7000, -75.865
1628.8000, -77.244
1628.9000, -76.585
1629.0000, -76.142
1629.1000, -75.964
1629.2000, -75.838
1629.3000, -76.401
1629.4000, -76.211
1629.5000, -77.518
1629.6000, -77.524
1629.7000, -76.538
1629.8000, -76.229
1629.9000, -76.685
1630.0000, -76.413
1630.1000, -76.250
1630.2000, -76.485
1630.3000, -75.259
1630.4000, -76.394
1630.5000, -76.939
1630.6000, -75.836
1630.7000, -76.777
1630.8000, -76.129
1630.9000, -77.081
1631.0000, -75.804
1631.1000, -76.780
1631.2000, -75.825
1631.3000, -76.063
1631.4000, -76.015
1631.5000, -76.891
1631.6000, -77.361
1631.7000, -75.207
1631.8000, -75.978
1631.9000, -77.254
1632.0000, -75.918
1632.1000, -76.616
1632.2000, -76.288
1632.3000, -77.407
1632.4000, -77.646
1632.5000, -77.326
1632.6000, -76.170
1632.7000, -76.040
1632.8000, -74.793
1632.9000, -79.326
1633.0000, -75.720
1633.1000, -75.426
1633.2000, -76.791
1633.3000, -74.642
1633.4000, -79.240
1633.5000, -75.162
1633.6000, -77.059
1633.7000, -74.331
1633.8000, -77.330
1633.9000, -76.264
1634.0000, -75.055
1634.1000, -76.410
1634.2000, -74.752
1634.3000, -75.806
1634.4000, -79.091
1634.5000, -76.068
1634.6000, -75.590
1634.7000, -76.113
1634.8000, -75.384
1634.9000, -77.475
1635.0000, -75.093
1635.1000, -77.485
1635.2000, -75.616
1635.3000, -73.980
1635.4000, -78.332
1635.5000, -77.602
1635.6000, -75.308
1635.7000, -75.727
1635.8000, -75.712
1635.9000, -78.354
1636.0000, -76.472
1636.1000, -75.786
1636.2000, -75.591
1636.3000, -75.134
1636.4000, -75.339
1636.5000, -77.976
1636.6000, -75.085
1636.7000, -74.366
1636.8000, -76.109
1636.9000, -76.744
1637.0000, -77.484
1637.1000, -76.200
1637.2000, -74.401
1637.3000, -76.770
1637.4000, -75.500
1637.5000, -77.166
1637.6000, -75.444
1637.7000, -77.423
1637.8000, -74.713
1637.9000, -76.714
1638.0000, -75.295
1638.1000, -75.335
1638.2000, -74.534
1638.3000, -75.449
1638.4000, -74.563
1638.5000, -74.731
1638.6000, -72.703
1638.7000, -75.585
1638.8000, -78.459
1638.9000, -74.589
1639.0000, -74.949
1639.1000, -75.000
1639.2000, -74.707
1639.3000, -75.799
1639.4000, -76.264
1639.5000, -73.179
1639.6000, -77.420
1639.7000, -74.155
1639.8000, -79.079
1639.9000, -74.959
1640.0000, -75.719
1640.1000, -73.328
1640.2000, -75.120
1640.3000, -75.955
1640.4000, -73.349
1640.5000, -79.401
1640.6000, -74.133
1640.7000, -75.624
1640.8000, -74.326
1640.9000, -73.915
1641.0000, -74.090
1641.1000, -73.106
1641.2000, -75.342
1641.3000, -76.494
1641.4000, -73.246
1641.5000, -74.066
1641.6000, -74.398
1641.7000, -73.884
1641.8000, -74.231
1641.9000, -74.357
1642.0000, -73.939
1642.1000, -75.111
1642.2000, -73.787
1642.3000, -77.284
1642.4000, -74.014
1642.5000, -74.616
1642.6000, -75.172
1642.7000, -73.753
1642.8000, -73.530
1642.9000, -74.110
1643.0000, -80.161
1643.1000, -73.321
1643.2000, -74.468
1643.3000, -74.032
1643.4000, -77.035
1643.5000, -72.882
1643.6000, -74.993
1643.7000, -74.991
1643.8000, -75.514
1643.9000, -73.211
1644.0000, -74.987
1644.1000, -72.314
1644.2000, -77.070
1644.3000, -74.619
1644.4000, -73.242
1644.5000, -79.639
1644.6000, -71.623
1644.7000, -76.458
1644.8000, -71.815
1644.9000, -75.469
1645.0000, -74.617
1645.1000, -74.410
1645.2000, -74.361
1645.3000, -73.751
1645.4000, -73.862
1645.5000, -72.651
1645.6000, -73.082
1645.7000, -75.612
1645.8000, -72.758
1645.9000, -72.938
1646.0000, -74.661
1646.1000, -72.556
1646.2000, -75.766
1646.3000, -73.777
1646.4000, -73.340
1646.5000, -73.315
1646.6000, -73.351
1646.7000, -73.326
1646.8000, -74.027
1646.9000, -73.468
1647.0000, -73.482
1647.1000, -74.123
1647.2000, -71.749
1647.3000, -74.160
1647.4000, -72.422
1647.5000, -73.221
1647.6000, -73.643
1647.7000, -73.414
1647.8000, -73.163
1647.9000, -72.916
1648.0000, -73.041
1648.1000, -74.078
1648.2000, -72.698
1648.3000, -72.198
1648.4000, -73.841
1648.5000, -72.993
1648.6000, -73.746
1648.7000, -72.578
1648.8000, -73.312
1648.9000, -74.932
1649.0000, -72.235
1649.1000, -72.163
1649.2000, -74.175
1649.3000, -72.426
1649.4000, -72.024
1649.5000, -72.268
1649.6000, -73.380
1649.7000, -71.698
1649.8000, -71.682
1649.9000, -72.513
1650.0000, -73.381
1650.1000, -71.596
1650.2000, -72.329
1650.3000, -72.425
1650.4000, -70.613
1650.5000, -71.227
1650.6000, -74.850
1650.7000, -72.295
1650.8000, -70.413
1650.9000, -71.996
1651.0000, -73.646
1651.1000, -76.344
1651.2000, -71.576
1651.3000, -71.633
1651.4000, -74.246
1651.5000, -69.962
1651.6000, -71.555
1651.7000, -73.288
1651.8000, -72.408
1651.9000, -72.175
1652.0000, -72.506
1652.1000, -71.604
1652.2000, -71.881
1652.3000, -71.136
1652.4000, -74.398
1652.5000, -71.467
1652.6000, -72.531
1652.7000, -72.114
1652.8000, -73.035
1652.9000, -71.937
1653.0000, -71.999
1653.1000, -70.569
1653.2000, -73.383
1653.3000, -69.574
1653.4000, -76.405
1653.5000, -71.728
1653.6000, -71.306
1653.7000, -70.352
1653.8000, -69.768
1653.9000, -70.778
1654.0000, -79.363
1654.1000, -71.063
1654.2000, -73.560
1654.3000, -70.844
1654.4000, -71.353
1654.5000, -73.056
1654.6000, -71.859
1654.7000, -70.373
1654.8000, -70.515
1654.9000, -72.368
1655.0000, -71.448
1655.1000, -71.985
1655.2000, -69.601
1655.3000, -73.594
1655.4000, -70.613
1655.5000, -71.325
1655.6000, -71.224
1655.7000, -70.897
1655.8000, -71.530
1655.9000, -69.695
1656.0000, -73.262
1656.1000, -70.305
1656.2000, -71.272
1656.3000, -72.473
1656.4000, -68.676
1656.5000, -72.679
1656.6000, -71.677
1656.7000, -69.349
1656.8000, -74.174
1656.9000, -69.426
1657.0000, -72.694
1657.1000, -69.773
1657.2000, -71.318
1657.3000, -70.048
1657.4000, -70.984
1657.5000, -68.528
1657.6000, -71.352
1657.7000, -71.121
1657.8000, -70.621
1657.9000, -70.896
1658.0000, -68.328
1658.1000, -74.395
1658.2000, -74.026
1658.3000, -69.625
1658.4000, -69.320
1658.5000, -69.609
1658.6000, -74.643
1658.7000, -69.134
1658.8000, -71.286
1658.9000, -69.395
1659.0000, -70.173
1659.1000, -71.289
1659.2000, -68.876
1659.3000, -73.710
1659.4000, -69.875
1659.5000, -69.622
1659.6000, -73.422
1659.7000, -68.745
1659.8000, -71.719
1659.9000, -68.396
1660.0000, -71.494
1660.1000, -73.139
1660.2000, -68.696
1660.3000, -74.941
1660.4000, -69.267
1660.5000, -69.803
1660.6000, -72.563
1660.7000, -71.828
1660.8000, -69.687
1660.9000, -69.986
1661.0000, -69.274
1661.1000, -69.976
1661.2000, -70.541
1661.3000, -69.689
1661.4000, -68.438
1661.5000, -70.205
1661.6000, -70.277
1661.7000, -69.648
1661.8000, -68.415
1661.9000, -68.745
1662.0000, -70.504
1662.1000, -70.476
1662.2000, -70.470
1662.3000, -69.070
1662.4000, -71.470
1662.5000, -68.678
1662.6000, -71.141
1662.7000, -69.782
1662.8000, -70.445
1662.9000, -68.987
1663.0000, -70.201
1663.1000, -68.725
1663.2000, -68.321
1663.3000, -70.482
1663.4000, -68.589
1663.5000, -71.488
1663.6000, -69.048
1663.7000, -70.354
1663.8000, -68.673
1663.9000, -71.494
1664.0000, -68.832
1664.1000, -68.134
1664.2000, -70.181
1664.3000, -68.660
1664.4000, -69.363
1664.5000, -70.736
1664.6000, -68.953
1664.7000, -68.989
1664.8000, -68.689
1664.9000, -69.431
1665.0000, -68.548
1665.1000, -68.618
1665.2000, -68.577
1665.3000, -70.117
1665.4000, -67.522
1665.5000, -68.583
1665.6000, -69.964
1665.7000, -69.046
1665.8000, -68.809
1665.9000, -70.584
1666.0000, -69.325
1666.1000, -68.040
1666.2000, -68.518
1666.3000, -68.453
1666.4000, -68.509
1666.5000, -67.738
1666.6000, -70.548
1666.7000, -67.634
1666.8000, -68.834
1666.9000, -66.609
1667.0000, -71.069
1667.1000, -69.373
1667.2000, -68.682
1667.3000, -68.377
1667.4000, -68.154
1667.5000, -68.652
1667.6000, -69.418
1667.7000, -68.855
1667.8000, -67.421
1667.9000, -69.147
1668.0000, -68.551
1668.1000, -69.223
1668.2000, -68.387
1668.3000, -68.053
1668.4000, -67.586
1668.5000, -68.931
1668.6000, -68.830
1668.7000, -69.285
1668.8000, -68.277
1668.9000, -67.672
1669.0000, -69.058
1669.1000, -69.477
1669.2000, -67.660
1669.3000, -67.382
1669.4000, -68.986
1669.5000, -69.248
1669.6000, -67.735
1669.7000, -67.890
1669.8000, -68.395
1669.9000, -67.822
1670.0000, -67.975
1670.1000, -67.517
1670.2000, -68.795
1670.3000, -68.387
1670.4000, -67.595
1670.5000, -68.294
1670.6000, -68.038
1670.7000, -66.998
1670.8000, -67.130
1670.9000, -68.933
1671.0000, -67.051
1671.1000, -68.532
1671.2000, -67.790
1671.3000, -68.109
1671.4000, -69.279
1671.5000, -67.120
1671.6000, -68.120
1671.7000, -67.453
1671.8000, -67.837
1671.9000, -65.105
1672.0000, -79.042
1672.1000, -67.366
1672.2000, -67.916
1672.3000, -67.959
1672.4000, -67.977
1672.5000, -67.493
1672.6000, -67.150
1672.7000, -67.458
1672.8000, -67.562
1672.9000, -68.869
1673.0000, -66.549
1673.1000, -67.561
1673.2000, -66.773
1673.3000, -67.424
1673.4000, -66.413
1673.5000, -66.931
1673.6000, -67.404
1673.7000, -66.184
1673.8000, -68.047
1673.9000, -67.694
1674.0000, -66.705
1674.1000, -66.495
1674.2000, -67.949
1674.3000, -66.423
1674.4000, -66.407
1674.5000, -66.929
1674.6000, -68.120
1674.7000, -66.565
1674.8000, -66.717
1674.9000, -68.212
1675.0000, -67.107
1675.1000, -66.801
1675.2000, -66.866
1675.3000, -66.091
1675.4000, -66.703
1675.5000, -66.302
1675.6000, -67.785
1675.7000, -66.995
1675.8000, -65.909
1675.9000, -69.884
1676.0000, -66.050
1676.1000, -66.523
1676.2000, -65.920
1676.3000, -66.314
1676.4000, -67.844
1676.5000, -65.946
1676.6000, -66.782
1676.7000, -67.427
1676.8000, -66.518
1676.9000, -67.925
1677.0000, -65.338
1677.1000, -67.462
1677.2000, -66.620
1677.3000, -65.514
1677.4000, -66.265
1677.5000, -67.334
1677.6000, -68.820
1677.7000, -66.298
1677.8000, -65.952
1677.9000, -66.688
1678.0000, -66.368
1678.1000, -67.708
1678.2000, -65.593
1678.3000, -65.520
1678.4000, -65.703
1678.5000, -66.412
1678.6000, -67.777
1678.7000, -66.704
1678.8000, -65.446
1678.9000, -66.679
1679.0000, -66.528
1679.1000, -66.750
1679.2000, -65.823
1679.3000, -65.180
1679.4000, -66.762
1679.5000, -65.792
1679.6000, -63.697
1679.7000, -69.656
1679.8000, -68.208
1679.9000, -65.223
1680.0000, -64.519
1680.1000, -62.685
1680.2000, -69.579
1680.3000, -63.745
1680.4000, -72.561
1680.5000, -64.457
1680.6000, -65.885
1680.7000, -65.908
1680.8000, -65.808
1680.9000, -64.932
1681.0000, -64.029
1681.1000, -64.547
1681.2000, -68.172
1681.3000, -72.292
1681.4000, -64.823
1681.5000, -65.950
1681.6000, -64.744
1681.7000, -67.950
1681.8000, -63.891
1681.9000, -64.525
1682.0000, -67.617
1682.1000, -69.465
1682.2000, -65.612
1682.3000, -64.734
1682.4000, -65.382
1682.5000, -64.422
1682.6000, -64.714
1682.7000, -65.860
1682.8000, -64.346
1682.9000, -68.698
1683.0000, -66.083
1683.1000, -64.433
1683.2000, -64.500
1683.3000, -63.822
1683.4000, -72.147
1683.5000, -63.036
1683.6000, -66.232
1683.7000, -65.061
1683.8000, -66.175
1683.9000, -63.028
1684.0000, -66.980
1684.1000, -64.506
1684.2000, -63.867
1684.3000, -63.410
1684.4000, -74.988
1684.5000, -64.253
1684.6000, -65.317
1684.7000, -61.310
1684.8000, -66.488
1684.9000, -65.835
1685.0000, -66.143
1685.1000, -64.017
1685.2000, -65.381
1685.3000, -64.237
1685.4000, -63.655
1685.5000, -65.289
1685.6000, -65.717
1685.7000, -64.420
1685.8000, -66.602
1685.9000, -63.759
1686.0000, -65.638
1686.1000, -63.482
1686.2000, -65.885
1686.3000, -64.526
1686.4000, -63.582
1686.5000, -63.525
1686.6000, -67.094
1686.7000, -65.057
1686.8000, -63.022
1686.9000, -66.230
1687.0000, -64.963
1687.1000, -63.244
1687.2000, -64.846
1687.3000, -65.448
1687.4000, -64.425
1687.5000, -63.491
1687.6000, -65.447
1687.7000, -65.505
1687.8000, -64.123
1687.9000, -63.094
1688.0000, -64.583
1688.1000, -63.478
1688.2000, -65.093
1688.3000, -63.896
1688.4000, -62.447
1688.5000, -70.969
1688.6000, -62.076
1688.7000, -65.001
1688.8000, -64.943
1688.9000, -63.849
1689.0000, -63.518
1689.1000, -63.513
1689.2000, -64.195
1689.3000, -63.518
1689.4000, -62.862
1689.5000, -67.518
1689.6000, -62.538
1689.7000, -63.883
1689.8000, -64.143
1689.9000, -65.212
1690.0000, -62.715
1690.1000, -64.125
1690.2000, -62.363
1690.3000, -62.572
1690.4000, -65.119
1690.5000, -62.192
1690.6000, -61.117
1690.7000, -64.714
1690.8000, -65.517
1690.9000, -68.294
1691.0000, -62.734
1691.1000, -63.928
1691.2000, -62.218
1691.3000, -63.009
1691.4000, -62.541
1691.5000, -63.499
1691.6000, -64.837
1691.7000, -61.550
1691.8000, -63.293
1691.9000, -62.385
1692.0000, -64.155
1692.1000, -63.384
1692.2000, -62.492
1692.3000, -65.017
1692.4000, -62.122
1692.5000, -61.742
1692.6000, -63.341
1692.7000, -64.587
1692.8000, -61.154
1692.9000, -61.231
1693.0000, -64.320
1693.1000, -60.313
1693.2000, -64.620
1693.3000, -62.620
1693.4000, -65.860
1693.5000, -60.928
1693.6000, -62.834
1693.7000, -61.920
1693.8000, -63.334
1693.9000, -62.693
1694.0000, -63.496
1694.1000, -61.086
1694.2000, -64.428
1694.3000, -63.065
1694.4000, -62.277
1694.5000, -63.172
1694.6000, -63.771
1694.7000, -63.055
1694.8000, -60.248
1694.9000, -64.823
1695.0000, -61.152
1695.1000, -63.791
1695.2000, -61.697
1695.3000, -61.932
1695.4000, -65.950
1695.5000, -62.427
1695.6000, -62.248
1695.7000, -63.605
1695.8000, -61.853
1695.9000, -60.533
1696.0000, -63.046
1696.1000, -62.501
1696.2000, -61.588
1696.3000, -64.099
1696.4000, -61.301
1696.5000, -61.112
1696.6000, -62.855
1696.7000, -62.040
1696.8000, -59.826
1696.9000, -60.711
1697.0000, -60.865
1697.1000, -63.886
1697.2000, -61.708
1697.3000, -60.643
1697.4000, -61.444
1697.5000, -60.755
1697.6000, -61.594
1697.7000, -61.249
1697.8000, -61.249
1697.9000, -60.155
1698.0000, -61.322
1698.1000, -60.877
1698.2000, -61.420
1698.3000, -60.812
1698.4000, -61.352
1698.5000, -60.157
1698.6000, -62.979
1698.7000, -60.965
1698.8000, -61.415
1698.9000, -59.621
1699.0000, -65.073
1699.1000, -62.166
1699.2000, -60.177
1699.3000, -60.599
1699.4000, -59.749
1699.5000, -61.136
1699.6000, -62.628
1699.7000, -60.871
1699.8000, -61.854
1699.9000, -59.779
1700.0000, -61.000
