70BCSV 	
// AQ6370B OPTICAL SPECTRUM ANALYZER //                 
25
"CTRWL",1300.000000
"SPAN", 800.000000
"START WL", 900.000000
"STOP WL",1700.000000
"WLFREQ", 0
"REFL",-17.2
"LSCL",10.0
"RESLN",0.500
"AVG",   1
"SMPLAUTO",      1
"SMPL",       8001
"SMPLINTVL",0.1000
"HIGH1"
"MEAS"
"LSUNT",0
"NMSKH","OFF"
"RESCOR",0
"RESPARM", 9740
"FREQPARM", 9740






"[TRACE DATA]"
 900.0000, -67.357
 900.1000, -67.608
 900.2000, -65.957
 900.3000, -66.646
 900.4000, -67.156
 900.5000, -66.996
 900.6000, -66.472
 900.7000, -65.817
 900.8000, -65.986
 900.9000, -66.519
 901.0000, -66.520
 901.1000, -66.612
 901.2000, -66.368
 901.3000, -66.594
 901.4000, -66.305
 901.5000, -66.313
 901.6000, -66.556
 901.7000, -66.500
 901.8000, -65.860
 901.9000, -66.739
 902.0000, -65.767
 902.1000, -67.692
 902.2000, -65.711
 902.3000, -66.770
 902.4000, -67.772
 902.5000, -65.871
 902.6000, -65.870
 902.7000, -68.780
 902.8000, -67.318
 902.9000, -66.010
 903.0000, -66.793
 903.1000, -66.714
 903.2000, -67.897
 903.3000, -66.024
 903.4000, -66.653
 903.5000, -66.781
 903.6000, -66.653
 903.7000, -67.002
 903.8000, -66.553
 903.9000, -67.189
 904.0000, -66.548
 904.1000, -67.560
 904.2000, -66.419
 904.3000, -67.451
 904.4000, -66.684
 904.5000, -65.621
 904.6000, -67.236
 904.7000, -67.839
 904.8000, -65.987
 904.9000, -68.283
 905.0000, -68.107
 905.1000, -67.819
 905.2000, -65.766
 905.3000, -66.635
 905.4000, -67.448
 905.5000, -67.491
 905.6000, -67.139
 905.7000, -67.488
 905.8000, -67.133
 905.9000, -68.017
 906.0000, -66.674
 906.1000, -67.307
 906.2000, -66.643
 906.3000, -68.354
 906.4000, -67.910
 906.5000, -67.634
 906.6000, -66.614
 906.7000, -67.690
 906.8000, -66.872
 906.9000, -67.421
 907.0000, -67.618
 907.1000, -67.674
 907.2000, -66.652
 907.3000, -68.342
 907.4000, -67.433
 907.5000, -66.891
 907.6000, -67.079
 907.7000, -67.155
 907.8000, -68.287
 907.9000, -69.006
 908.0000, -67.219
 908.1000, -66.911
 908.2000, -68.470
 908.3000, -67.202
 908.4000, -67.213
 908.5000, -67.716
 908.6000, -67.949
 908.7000, -67.877
 908.8000, -67.276
 908.9000, -68.067
 909.0000, -68.326
 909.1000, -67.883
 909.2000, -67.077
 909.3000, -67.969
 909.4000, -68.394
 909.5000, -68.007
 909.6000, -67.158
 909.7000, -68.556
 909.8000, -67.254
 909.9000, -68.134
 910.0000, -67.942
 910.1000, -67.310
 910.2000, -68.581
 910.3000, -70.424
 910.4000, -67.905
 910.5000, -68.239
 910.6000, -68.678
 910.7000, -67.114
 910.8000, -68.397
 910.9000, -67.527
 911.0000, -67.864
 911.1000, -68.162
 911.2000, -71.213
 911.3000, -67.924
 911.4000, -69.215
 911.5000, -68.621
 911.6000, -68.477
 911.7000, -68.983
 911.8000, -68.354
 911.9000, -68.831
 912.0000, -68.564
 912.1000, -69.116
 912.2000, -67.926
 912.3000, -69.022
 912.4000, -68.324
 912.5000, -68.605
 912.6000, -68.668
 912.7000, -68.733
 912.8000, -69.267
 912.9000, -68.037
 913.0000, -68.192
 913.1000, -68.180
 913.2000, -69.286
 913.3000, -69.061
 913.4000, -68.221
 913.5000, -68.522
 913.6000, -69.496
 913.7000, -68.407
 913.8000, -69.070
 913.9000, -68.642
 914.0000, -67.143
 914.1000, -69.408
 914.2000, -71.431
 914.3000, -69.194
 914.4000, -69.471
 914.5000, -68.611
 914.6000, -70.161
 914.7000, -69.278
 914.8000, -68.996
 914.9000, -68.604
 915.0000, -68.763
 915.1000, -69.412
 915.2000, -69.035
 915.3000, -69.650
 915.4000, -68.572
 915.5000, -69.114
 915.6000, -69.387
 915.7000, -68.864
 915.8000, -69.095
 915.9000, -70.053
 916.0000, -69.311
 916.1000, -69.670
 916.2000, -69.119
 916.3000, -69.185
 916.4000, -69.019
 916.5000, -69.610
 916.6000, -69.710
 916.7000, -69.474
 916.8000, -69.623
 916.9000, -69.087
 917.0000, -68.573
 917.1000, -69.665
 917.2000, -70.206
 917.3000, -69.960
 917.4000, -69.383
 917.5000, -70.746
 917.6000, -68.337
 917.7000, -69.984
 917.8000, -71.726
 917.9000, -69.545
 918.0000, -69.405
 918.1000, -69.682
 918.2000, -69.355
 918.3000, -68.557
 918.4000, -70.616
 918.5000, -70.231
 918.6000, -69.711
 918.7000, -69.633
 918.8000, -69.164
 918.9000, -69.801
 919.0000, -72.976
 919.1000, -69.241
 919.2000, -69.763
 919.3000, -69.052
 919.4000, -68.979
 919.5000, -70.490
 919.6000, -71.072
 919.7000, -70.222
 919.8000, -69.887
 919.9000, -69.934
 920.0000, -69.995
 920.1000, -69.807
 920.2000, -70.268
 920.3000, -69.808
 920.4000, -70.364
 920.5000, -70.334
 920.6000, -69.672
 920.7000, -70.775
 920.8000, -68.567
 920.9000, -70.053
 921.0000, -70.439
 921.1000, -71.854
 921.2000, -70.433
 921.3000, -69.707
 921.4000, -68.304
 921.5000, -69.938
 921.6000, -70.684
 921.7000, -70.195
 921.8000, -71.326
 921.9000, -69.293
 922.0000, -71.120
 922.1000, -69.735
 922.2000, -70.720
 922.3000, -69.816
 922.4000, -69.295
 922.5000, -69.644
 922.6000, -70.425
 922.7000, -73.181
 922.8000, -70.775
 922.9000, -70.213
 923.0000, -70.080
 923.1000, -71.234
 923.2000, -69.118
 923.3000, -71.770
 923.4000, -71.609
 923.5000, -69.457
 923.6000, -72.810
 923.7000, -70.149
 923.8000, -71.190
 923.9000, -70.971
 924.0000, -70.531
 924.1000, -71.317
 924.2000, -70.624
 924.3000, -70.779
 924.4000, -71.163
 924.5000, -70.869
 924.6000, -70.683
 924.7000, -70.705
 924.8000, -70.695
 924.9000, -70.574
 925.0000, -69.834
 925.1000, -71.698
 925.2000, -70.088
 925.3000, -70.145
 925.4000, -69.993
 925.5000, -71.434
 925.6000, -70.739
 925.7000, -70.772
 925.8000, -70.731
 925.9000, -69.400
 926.0000, -70.447
 926.1000, -72.122
 926.2000, -70.360
 926.3000, -69.745
 926.4000, -72.809
 926.5000, -72.164
 926.6000, -70.180
 926.7000, -72.556
 926.8000, -70.583
 926.9000, -71.220
 927.0000, -70.957
 927.1000, -70.254
 927.2000, -71.370
 927.3000, -70.662
 927.4000, -71.207
 927.5000, -70.618
 927.6000, -70.250
 927.7000, -70.714
 927.8000, -72.379
 927.9000, -70.767
 928.0000, -70.845
 928.1000, -72.407
 928.2000, -70.526
 928.3000, -71.021
 928.4000, -71.521
 928.5000, -71.185
 928.6000, -70.835
 928.7000, -70.912
 928.8000, -70.765
 928.9000, -71.772
 929.0000, -71.600
 929.1000, -71.141
 929.2000, -70.501
 929.3000, -71.407
 929.4000, -70.317
 929.5000, -72.915
 929.6000, -70.495
 929.7000, -72.108
 929.8000, -69.956
 929.9000, -70.985
 930.0000, -72.337
 930.1000, -70.855
 930.2000, -71.358
 930.3000, -71.942
 930.4000, -70.196
 930.5000, -71.126
 930.6000, -73.085
 930.7000, -71.234
 930.8000, -71.905
 930.9000, -71.499
 931.0000, -70.481
 931.1000, -71.869
 931.2000, -71.564
 931.3000, -71.023
 931.4000, -70.724
 931.5000, -71.164
 931.6000, -72.005
 931.7000, -71.350
 931.8000, -72.220
 931.9000, -72.824
 932.0000, -71.533
 932.1000, -70.762
 932.2000, -71.703
 932.3000, -72.268
 932.4000, -71.103
 932.5000, -73.261
 932.6000, -70.904
 932.7000, -70.811
 932.8000, -72.836
 932.9000, -71.306
 933.0000, -73.514
 933.1000, -70.586
 933.2000, -71.205
 933.3000, -71.036
 933.4000, -71.441
 933.5000, -73.382
 933.6000, -70.657
 933.7000, -76.365
 933.8000, -70.088
 933.9000, -72.517
 934.0000, -73.363
 934.1000, -71.130
 934.2000, -71.975
 934.3000, -72.826
 934.4000, -71.709
 934.5000, -71.725
 934.6000, -71.613
 934.7000, -71.703
 934.8000, -72.491
 934.9000, -71.949
 935.0000, -70.673
 935.1000, -72.726
 935.2000, -71.943
 935.3000, -72.394
 935.4000, -71.553
 935.5000, -71.585
 935.6000, -71.936
 935.7000, -71.725
 935.8000, -70.277
 935.9000, -72.097
 936.0000, -74.531
 936.1000, -72.022
 936.2000, -70.631
 936.3000, -72.672
 936.4000, -73.211
 936.5000, -71.668
 936.6000, -71.463
 936.7000, -71.876
 936.8000, -72.736
 936.9000, -72.077
 937.0000, -71.270
 937.1000, -72.858
 937.2000, -71.639
 937.3000, -72.252
 937.4000, -71.145
 937.5000, -72.485
 937.6000, -72.435
 937.7000, -72.113
 937.8000, -71.403
 937.9000, -71.045
 938.0000, -71.713
 938.1000, -71.160
 938.2000, -70.531
 938.3000, -71.010
 938.4000, -70.249
 938.5000, -70.474
 938.6000, -70.362
 938.7000, -70.625
 938.8000, -69.598
 938.9000, -71.666
 939.0000, -70.859
 939.1000, -70.505
 939.2000, -71.391
 939.3000, -71.224
 939.4000, -70.636
 939.5000, -72.733
 939.6000, -72.109
 939.7000, -70.612
 939.8000, -72.211
 939.9000, -71.158
 940.0000, -72.945
 940.1000, -73.599
 940.2000, -72.305
 940.3000, -71.191
 940.4000, -73.514
 940.5000, -72.044
 940.6000, -72.624
 940.7000, -72.156
 940.8000, -72.896
 940.9000, -72.518
 941.0000, -71.521
 941.1000, -73.474
 941.2000, -73.126
 941.3000, -70.997
 941.4000, -72.563
 941.5000, -72.987
 941.6000, -72.150
 941.7000, -71.510
 941.8000, -72.915
 941.9000, -72.644
 942.0000, -73.468
 942.1000, -71.471
 942.2000, -71.835
 942.3000, -72.679
 942.4000, -72.691
 942.5000, -71.688
 942.6000, -71.994
 942.7000, -72.775
 942.8000, -71.698
 942.9000, -73.955
 943.0000, -71.886
 943.1000, -73.586
 943.2000, -72.883
 943.3000, -73.209
 943.4000, -72.717
 943.5000, -72.734
 943.6000, -72.196
 943.7000, -72.571
 943.8000, -72.057
 943.9000, -72.470
 944.0000, -73.191
 944.1000, -72.425
 944.2000, -72.685
 944.3000, -72.047
 944.4000, -73.817
 944.5000, -71.777
 944.6000, -72.895
 944.7000, -72.062
 944.8000, -72.048
 944.9000, -71.252
 945.0000, -73.298
 945.1000, -71.972
 945.2000, -71.633
 945.3000, -71.062
 945.4000, -71.297
 945.5000, -70.755
 945.6000, -70.941
 945.7000, -69.989
 945.8000, -70.168
 945.9000, -69.427
 946.0000, -69.503
 946.1000, -69.078
 946.2000, -68.926
 946.3000, -69.652
 946.4000, -69.512
 946.5000, -69.956
 946.6000, -69.993
 946.7000, -70.577
 946.8000, -70.676
 946.9000, -70.914
 947.0000, -71.315
 947.1000, -71.559
 947.2000, -70.975
 947.3000, -72.206
 947.4000, -72.567
 947.5000, -71.474
 947.6000, -73.189
 947.7000, -72.966
 947.8000, -73.356
 947.9000, -73.101
 948.0000, -72.394
 948.1000, -73.847
 948.2000, -72.612
 948.3000, -72.484
 948.4000, -72.381
 948.5000, -72.401
 948.6000, -73.669
 948.7000, -72.764
 948.8000, -72.422
 948.9000, -72.388
 949.0000, -74.808
 949.1000, -73.149
 949.2000, -72.623
 949.3000, -73.001
 949.4000, -73.039
 949.5000, -73.254
 949.6000, -72.440
 949.7000, -74.049
 949.8000, -73.195
 949.9000, -74.792
 950.0000, -73.569
 950.1000, -72.265
 950.2000, -73.694
 950.3000, -72.717
 950.4000, -72.598
 950.5000, -73.993
 950.6000, -73.574
 950.7000, -72.482
 950.8000, -73.753
 950.9000, -75.115
 951.0000, -73.275
 951.1000, -73.212
 951.2000, -73.427
 951.3000, -72.680
 951.4000, -72.782
 951.5000, -73.120
 951.6000, -72.885
 951.7000, -74.038
 951.8000, -72.884
 951.9000, -73.874
 952.0000, -71.633
 952.1000, -74.036
 952.2000, -74.736
 952.3000, -72.173
 952.4000, -73.476
 952.5000, -73.787
 952.6000, -73.622
 952.7000, -74.273
 952.8000, -72.269
 952.9000, -73.816
 953.0000, -72.917
 953.1000, -73.051
 953.2000, -73.498
 953.3000, -73.253
 953.4000, -74.845
 953.5000, -73.988
 953.6000, -73.425
 953.7000, -72.950
 953.8000, -72.519
 953.9000, -75.424
 954.0000, -73.163
 954.1000, -73.611
 954.2000, -72.633
 954.3000, -75.046
 954.4000, -74.954
 954.5000, -74.175
 954.6000, -72.743
 954.7000, -73.538
 954.8000, -73.568
 954.9000, -73.090
 955.0000, -72.724
 955.1000, -73.541
 955.2000, -73.692
 955.3000, -73.011
 955.4000, -72.758
 955.5000, -73.880
 955.6000, -73.075
 955.7000, -73.544
 955.8000, -73.449
 955.9000, -73.462
 956.0000, -73.610
 956.1000, -73.688
 956.2000, -73.750
 956.3000, -73.100
 956.4000, -72.928
 956.5000, -73.894
 956.6000, -73.619
 956.7000, -73.446
 956.8000, -74.121
 956.9000, -73.950
 957.0000, -73.486
 957.1000, -73.682
 957.2000, -72.539
 957.3000, -73.707
 957.4000, -74.021
 957.5000, -74.167
 957.6000, -73.324
 957.7000, -72.961
 957.8000, -74.199
 957.9000, -74.075
 958.0000, -73.075
 958.1000, -74.225
 958.2000, -73.541
 958.3000, -73.546
 958.4000, -73.220
 958.5000, -74.220
 958.6000, -73.311
 958.7000, -73.829
 958.8000, -72.855
 958.9000, -73.720
 959.0000, -73.841
 959.1000, -75.242
 959.2000, -72.416
 959.3000, -73.109
 959.4000, -74.275
 959.5000, -74.515
 959.6000, -75.310
 959.7000, -73.076
 959.8000, -73.346
 959.9000, -73.688
 960.0000, -74.207
 960.1000, -74.222
 960.2000, -74.440
 960.3000, -73.464
 960.4000, -74.018
 960.5000, -74.125
 960.6000, -73.695
 960.7000, -73.995
 960.8000, -72.467
 960.9000, -73.345
 961.0000, -73.370
 961.1000, -75.320
 961.2000, -73.859
 961.3000, -75.089
 961.4000, -73.476
 961.5000, -73.925
 961.6000, -72.350
 961.7000, -74.499
 961.8000, -74.520
 961.9000, -73.587
 962.0000, -73.608
 962.1000, -74.275
 962.2000, -74.493
 962.3000, -73.749
 962.4000, -74.201
 962.5000, -74.496
 962.6000, -72.880
 962.7000, -74.321
 962.8000, -74.141
 962.9000, -74.751
 963.0000, -74.021
 963.1000, -74.070
 963.2000, -73.583
 963.3000, -74.029
 963.4000, -73.928
 963.5000, -74.255
 963.6000, -74.025
 963.7000, -72.529
 963.8000, -75.641
 963.9000, -75.507
 964.0000, -73.894
 964.1000, -73.725
 964.2000, -74.374
 964.3000, -73.849
 964.4000, -74.301
 964.5000, -73.664
 964.6000, -74.069
 964.7000, -73.160
 964.8000, -73.935
 964.9000, -74.919
 965.0000, -74.230
 965.1000, -74.442
 965.2000, -73.506
 965.3000, -74.174
 965.4000, -73.572
 965.5000, -73.632
 965.6000, -74.563
 965.7000, -73.795
 965.8000, -73.930
 965.9000, -74.521
 966.0000, -72.963
 966.1000, -74.089
 966.2000, -73.822
 966.3000, -74.583
 966.4000, -73.377
 966.5000, -74.517
 966.6000, -73.570
 966.7000, -72.663
 966.8000, -73.816
 966.9000, -76.197
 967.0000, -72.375
 967.1000, -74.585
 967.2000, -73.138
 967.3000, -74.236
 967.4000, -74.310
 967.5000, -74.673
 967.6000, -74.125
 967.7000, -74.046
 967.8000, -73.031
 967.9000, -73.490
 968.0000, -75.230
 968.1000, -74.307
 968.2000, -74.567
 968.3000, -73.707
 968.4000, -74.303
 968.5000, -74.543
 968.6000, -74.110
 968.7000, -74.618
 968.8000, -73.697
 968.9000, -74.880
 969.0000, -73.927
 969.1000, -73.116
 969.2000, -75.282
 969.3000, -74.074
 969.4000, -73.719
 969.5000, -74.421
 969.6000, -74.188
 969.7000, -74.139
 969.8000, -73.828
 969.9000, -73.640
 970.0000, -73.901
 970.1000, -73.102
 970.2000, -73.191
 970.3000, -74.916
 970.4000, -74.110
 970.5000, -74.288
 970.6000, -75.712
 970.7000, -73.452
 970.8000, -73.376
 970.9000, -73.326
 971.0000, -72.310
 971.1000, -74.358
 971.2000, -79.193
 971.3000, -72.270
 971.4000, -74.322
 971.5000, -75.915
 971.6000, -74.859
 971.7000, -73.228
 971.8000, -75.022
 971.9000, -73.498
 972.0000, -73.484
 972.1000, -75.765
 972.2000, -73.267
 972.3000, -74.508
 972.4000, -74.312
 972.5000, -73.192
 972.6000, -76.884
 972.7000, -72.331
 972.8000, -74.684
 972.9000, -73.435
 973.0000, -74.552
 973.1000, -75.179
 973.2000, -74.609
 973.3000, -74.248
 973.4000, -73.868
 973.5000, -72.547
 973.6000, -74.772
 973.7000, -77.755
 973.8000, -72.911
 973.9000, -74.975
 974.0000, -73.043
 974.1000, -74.905
 974.2000, -73.942
 974.3000, -73.007
 974.4000, -73.996
 974.5000, -76.268
 974.6000, -76.129
 974.7000, -73.137
 974.8000, -73.350
 974.9000, -74.431
 975.0000, -75.754
 975.1000, -74.133
 975.2000, -73.952
 975.3000, -74.378
 975.4000, -75.192
 975.5000, -74.465
 975.6000, -74.374
 975.7000, -74.134
 975.8000, -74.396
 975.9000, -73.887
 976.0000, -74.167
 976.1000, -73.563
 976.2000, -74.936
 976.3000, -75.035
 976.4000, -73.677
 976.5000, -73.661
 976.6000, -74.320
 976.7000, -74.390
 976.8000, -73.958
 976.9000, -74.309
 977.0000, -74.271
 977.1000, -74.734
 977.2000, -73.885
 977.3000, -74.287
 977.4000, -75.006
 977.5000, -74.537
 977.6000, -74.403
 977.7000, -74.578
 977.8000, -73.901
 977.9000, -74.438
 978.0000, -74.784
 978.1000, -73.923
 978.2000, -74.714
 978.3000, -74.466
 978.4000, -74.443
 978.5000, -74.308
 978.6000, -74.081
 978.7000, -74.796
 978.8000, -73.858
 978.9000, -74.410
 979.0000, -74.399
 979.1000, -74.484
 979.2000, -74.306
 979.3000, -74.148
 979.4000, -75.322
 979.5000, -74.537
 979.6000, -74.518
 979.7000, -74.274
 979.8000, -74.201
 979.9000, -73.744
 980.0000, -73.566
 980.1000, -75.227
 980.2000, -74.464
 980.3000, -74.121
 980.4000, -73.637
 980.5000, -73.643
 980.6000, -75.337
 980.7000, -74.226
 980.8000, -74.991
 980.9000, -74.995
 981.0000, -74.480
 981.1000, -74.321
 981.2000, -74.212
 981.3000, -74.406
 981.4000, -74.286
 981.5000, -73.653
 981.6000, -72.919
 981.7000, -73.559
 981.8000, -77.575
 981.9000, -73.170
 982.0000, -74.483
 982.1000, -73.354
 982.2000, -74.643
 982.3000, -73.646
 982.4000, -74.474
 982.5000, -73.876
 982.6000, -75.297
 982.7000, -75.691
 982.8000, -75.109
 982.9000, -74.235
 983.0000, -74.639
 983.1000, -72.879
 983.2000, -75.142
 983.3000, -76.464
 983.4000, -75.178
 983.5000, -74.144
 983.6000, -74.178
 983.7000, -74.462
 983.8000, -74.730
 983.9000, -74.976
 984.0000, -74.209
 984.1000, -74.516
 984.2000, -74.663
 984.3000, -74.049
 984.4000, -75.059
 984.5000, -73.618
 984.6000, -75.375
 984.7000, -74.737
 984.8000, -73.947
 984.9000, -74.837
 985.0000, -75.064
 985.1000, -74.277
 985.2000, -74.413
 985.3000, -74.470
 985.4000, -74.110
 985.5000, -74.597
 985.6000, -74.239
 985.7000, -74.977
 985.8000, -74.072
 985.9000, -72.703
 986.0000, -76.340
 986.1000, -74.520
 986.2000, -75.526
 986.3000, -74.707
 986.4000, -74.435
 986.5000, -74.447
 986.6000, -73.501
 986.7000, -73.640
 986.8000, -75.859
 986.9000, -73.857
 987.0000, -74.811
 987.1000, -74.743
 987.2000, -74.520
 987.3000, -74.916
 987.4000, -74.716
 987.5000, -74.319
 987.6000, -73.965
 987.7000, -73.987
 987.8000, -75.913
 987.9000, -75.254
 988.0000, -74.431
 988.1000, -74.401
 988.2000, -74.944
 988.3000, -75.049
 988.4000, -74.195
 988.5000, -73.695
 988.6000, -75.137
 988.7000, -74.774
 988.8000, -75.055
 988.9000, -74.497
 989.0000, -74.770
 989.1000, -74.468
 989.2000, -74.788
 989.3000, -73.998
 989.4000, -74.106
 989.5000, -75.200
 989.6000, -74.291
 989.7000, -75.060
 989.8000, -74.047
 989.9000, -74.061
 990.0000, -75.310
 990.1000, -75.000
 990.2000, -74.760
 990.3000, -74.554
 990.4000, -74.773
 990.5000, -74.227
 990.6000, -75.431
 990.7000, -74.194
 990.8000, -74.304
 990.9000, -73.842
 991.0000, -73.470
 991.1000, -74.647
 991.2000, -76.906
 991.3000, -74.082
 991.4000, -74.143
 991.5000, -76.067
 991.6000, -73.370
 991.7000, -74.389
 991.8000, -76.140
 991.9000, -74.648
 992.0000, -73.982
 992.1000, -74.160
 992.2000, -73.701
 992.3000, -75.672
 992.4000, -77.001
 992.5000, -74.297
 992.6000, -75.421
 992.7000, -74.184
 992.8000, -75.383
 992.9000, -73.953
 993.0000, -76.542
 993.1000, -73.774
 993.2000, -73.667
 993.3000, -74.381
 993.4000, -75.983
 993.5000, -75.952
 993.6000, -74.458
 993.7000, -73.920
 993.8000, -74.682
 993.9000, -76.610
 994.0000, -75.560
 994.1000, -74.394
 994.2000, -74.274
 994.3000, -74.930
 994.4000, -75.035
 994.5000, -75.935
 994.6000, -76.659
 994.7000, -73.926
 994.8000, -74.574
 994.9000, -74.969
 995.0000, -75.610
 995.1000, -75.836
 995.2000, -74.139
 995.3000, -75.804
 995.4000, -74.534
 995.5000, -74.990
 995.6000, -74.500
 995.7000, -75.332
 995.8000, -74.206
 995.9000, -74.769
 996.0000, -74.755
 996.1000, -76.908
 996.2000, -74.883
 996.3000, -74.882
 996.4000, -75.085
 996.5000, -75.086
 996.6000, -74.611
 996.7000, -74.857
 996.8000, -74.909
 996.9000, -75.862
 997.0000, -75.386
 997.1000, -73.768
 997.2000, -75.680
 997.3000, -75.510
 997.4000, -74.619
 997.5000, -74.556
 997.6000, -75.636
 997.7000, -74.684
 997.8000, -74.674
 997.9000, -74.516
 998.0000, -74.858
 998.1000, -75.407
 998.2000, -74.824
 998.3000, -74.285
 998.4000, -74.923
 998.5000, -75.115
 998.6000, -75.258
 998.7000, -75.802
 998.8000, -75.121
 998.9000, -74.867
 999.0000, -74.737
 999.1000, -74.825
 999.2000, -75.166
 999.3000, -74.829
 999.4000, -75.783
 999.5000, -74.720
 999.6000, -76.145
 999.7000, -74.675
 999.8000, -75.128
 999.9000, -75.126
1000.0000, -75.013
1000.1000, -75.592
1000.2000, -75.981
1000.3000, -74.969
1000.4000, -74.472
1000.5000, -75.569
1000.6000, -74.819
1000.7000, -75.466
1000.8000, -75.370
1000.9000, -75.285
1001.0000, -75.732
1001.1000, -75.432
1001.2000, -74.294
1001.3000, -74.825
1001.4000, -74.639
1001.5000, -76.129
1001.6000, -75.038
1001.7000, -73.770
1001.8000, -75.074
1001.9000, -76.756
1002.0000, -75.080
1002.1000, -75.159
1002.2000, -74.718
1002.3000, -75.277
1002.4000, -74.199
1002.5000, -74.620
1002.6000, -75.633
1002.7000, -76.337
1002.8000, -75.109
1002.9000, -74.702
1003.0000, -75.996
1003.1000, -74.706
1003.2000, -75.889
1003.3000, -75.927
1003.4000, -74.757
1003.5000, -75.128
1003.6000, -74.696
1003.7000, -75.383
1003.8000, -75.511
1003.9000, -75.944
1004.0000, -74.700
1004.1000, -75.936
1004.2000, -76.288
1004.3000, -75.585
1004.4000, -75.584
1004.5000, -75.559
1004.6000, -74.875
1004.7000, -75.380
1004.8000, -75.247
1004.9000, -74.111
1005.0000, -76.481
1005.1000, -74.259
1005.2000, -77.284
1005.3000, -76.170
1005.4000, -75.141
1005.5000, -75.136
1005.6000, -75.358
1005.7000, -76.486
1005.8000, -74.504
1005.9000, -75.382
1006.0000, -75.239
1006.1000, -75.914
1006.2000, -75.139
1006.3000, -75.678
1006.4000, -75.152
1006.5000, -76.325
1006.6000, -75.286
1006.7000, -77.036
1006.8000, -73.795
1006.9000, -76.227
1007.0000, -75.205
1007.1000, -74.620
1007.2000, -75.755
1007.3000, -75.109
1007.4000, -75.552
1007.5000, -75.543
1007.6000, -74.936
1007.7000, -75.522
1007.8000, -75.083
1007.9000, -75.733
1008.0000, -75.259
1008.1000, -75.543
1008.2000, -75.627
1008.3000, -75.241
1008.4000, -74.294
1008.5000, -76.735
1008.6000, -75.316
1008.7000, -74.740
1008.8000, -75.693
1008.9000, -76.337
1009.0000, -75.933
1009.1000, -74.946
1009.2000, -75.172
1009.3000, -75.293
1009.4000, -75.148
1009.5000, -74.835
1009.6000, -75.482
1009.7000, -76.132
1009.8000, -74.769
1009.9000, -74.529
1010.0000, -75.512
1010.1000, -74.673
1010.2000, -75.852
1010.3000, -75.347
1010.4000, -75.076
1010.5000, -75.811
1010.6000, -77.234
1010.7000, -74.279
1010.8000, -76.047
1010.9000, -74.001
1011.0000, -77.474
1011.1000, -74.896
1011.2000, -75.771
1011.3000, -78.099
1011.4000, -74.463
1011.5000, -75.203
1011.6000, -75.612
1011.7000, -75.901
1011.8000, -76.241
1011.9000, -75.869
1012.0000, -76.433
1012.1000, -74.912
1012.2000, -76.648
1012.3000, -75.567
1012.4000, -75.199
1012.5000, -75.081
1012.6000, -75.058
1012.7000, -75.181
1012.8000, -76.492
1012.9000, -75.436
1013.0000, -77.726
1013.1000, -76.150
1013.2000, -75.256
1013.3000, -74.534
1013.4000, -75.057
1013.5000, -74.961
1013.6000, -76.787
1013.7000, -76.093
1013.8000, -75.677
1013.9000, -76.048
1014.0000, -75.798
1014.1000, -76.024
1014.2000, -75.284
1014.3000, -75.642
1014.4000, -75.373
1014.5000, -75.864
1014.6000, -75.581
1014.7000, -75.619
1014.8000, -75.712
1014.9000, -74.777
1015.0000, -75.537
1015.1000, -75.393
1015.2000, -75.114
1015.3000, -75.488
1015.4000, -75.745
1015.5000, -75.741
1015.6000, -74.747
1015.7000, -76.358
1015.8000, -76.121
1015.9000, -74.894
1016.0000, -75.747
1016.1000, -75.681
1016.2000, -75.675
1016.3000, -74.540
1016.4000, -76.490
1016.5000, -77.199
1016.6000, -74.944
1016.7000, -75.905
1016.8000, -75.153
1016.9000, -75.738
1017.0000, -76.127
1017.1000, -75.657
1017.2000, -76.181
1017.3000, -75.049
1017.4000, -76.391
1017.5000, -75.312
1017.6000, -75.735
1017.7000, -75.280
1017.8000, -75.906
1017.9000, -75.643
1018.0000, -75.559
1018.1000, -74.847
1018.2000, -76.562
1018.3000, -75.946
1018.4000, -75.684
1018.5000, -74.984
1018.6000, -74.352
1018.7000, -74.038
1018.8000, -75.756
1018.9000, -75.725
1019.0000, -75.816
1019.1000, -76.944
1019.2000, -74.920
1019.3000, -76.315
1019.4000, -76.305
1019.5000, -75.279
1019.6000, -75.619
1019.7000, -76.223
1019.8000, -76.262
1019.9000, -75.999
1020.0000, -75.167
1020.1000, -75.082
1020.2000, -75.496
1020.3000, -75.937
1020.4000, -76.767
1020.5000, -76.253
1020.6000, -74.844
1020.7000, -74.894
1020.8000, -74.728
1020.9000, -75.199
1021.0000, -75.996
1021.1000, -74.366
1021.2000, -76.093
1021.3000, -76.610
1021.4000, -75.472
1021.5000, -75.433
1021.6000, -74.288
1021.7000, -74.310
1021.8000, -76.227
1021.9000, -75.421
1022.0000, -75.949
1022.1000, -76.542
1022.2000, -75.921
1022.3000, -74.619
1022.4000, -74.637
1022.5000, -75.354
1022.6000, -75.353
1022.7000, -75.576
1022.8000, -75.401
1022.9000, -76.818
1023.0000, -74.848
1023.1000, -74.860
1023.2000, -75.314
1023.3000, -74.830
1023.4000, -77.908
1023.5000, -76.168
1023.6000, -75.500
1023.7000, -75.217
1023.8000, -75.683
1023.9000, -75.734
1024.0000, -75.288
1024.1000, -74.533
1024.2000, -77.417
1024.3000, -74.986
1024.4000, -75.839
1024.5000, -74.907
1024.6000, -76.414
1024.7000, -75.679
1024.8000, -75.111
1024.9000, -74.572
1025.0000, -75.421
1025.1000, -76.161
1025.2000, -75.341
1025.3000, -74.624
1025.4000, -75.903
1025.5000, -75.025
1025.6000, -75.616
1025.7000, -75.855
1025.8000, -75.465
1025.9000, -75.636
1026.0000, -75.596
1026.1000, -75.494
1026.2000, -76.447
1026.3000, -75.187
1026.4000, -75.574
1026.5000, -75.205
1026.6000, -75.780
1026.7000, -76.300
1026.8000, -74.544
1026.9000, -75.382
1027.0000, -75.745
1027.1000, -75.250
1027.2000, -76.568
1027.3000, -75.087
1027.4000, -76.625
1027.5000, -74.945
1027.6000, -76.005
1027.7000, -74.635
1027.8000, -74.793
1027.9000, -76.125
1028.0000, -75.402
1028.1000, -74.800
1028.2000, -75.607
1028.3000, -75.028
1028.4000, -76.237
1028.5000, -76.107
1028.6000, -75.240
1028.7000, -75.125
1028.8000, -75.566
1028.9000, -75.232
1029.0000, -75.110
1029.1000, -75.239
1029.2000, -74.640
1029.3000, -75.418
1029.4000, -75.792
1029.5000, -75.467
1029.6000, -75.770
1029.7000, -75.596
1029.8000, -75.604
1029.9000, -75.083
1030.0000, -75.288
1030.1000, -75.929
1030.2000, -74.548
1030.3000, -76.024
1030.4000, -75.846
1030.5000, -75.153
1030.6000, -74.852
1030.7000, -75.387
1030.8000, -75.967
1030.9000, -75.409
1031.0000, -75.436
1031.1000, -76.176
1031.2000, -74.676
1031.3000, -75.786
1031.4000, -75.350
1031.5000, -75.109
1031.6000, -74.350
1031.7000, -74.904
1031.8000, -76.399
1031.9000, -74.908
1032.0000, -75.765
1032.1000, -76.045
1032.2000, -75.466
1032.3000, -75.070
1032.4000, -75.396
1032.5000, -75.162
1032.6000, -77.112
1032.7000, -75.048
1032.8000, -75.493
1032.9000, -75.332
1033.0000, -75.647
1033.1000, -75.328
1033.2000, -75.247
1033.3000, -75.774
1033.4000, -75.073
1033.5000, -75.018
1033.6000, -75.294
1033.7000, -76.074
1033.8000, -74.988
1033.9000, -77.378
1034.0000, -74.953
1034.1000, -74.998
1034.2000, -75.579
1034.3000, -75.128
1034.4000, -76.023
1034.5000, -75.075
1034.6000, -74.850
1034.7000, -75.288
1034.8000, -76.235
1034.9000, -75.635
1035.0000, -75.378
1035.1000, -75.045
1035.2000, -75.401
1035.3000, -75.854
1035.4000, -75.054
1035.5000, -76.410
1035.6000, -74.931
1035.7000, -75.051
1035.8000, -76.347
1035.9000, -75.930
1036.0000, -75.828
1036.1000, -74.810
1036.2000, -74.219
1036.3000, -77.216
1036.4000, -76.884
1036.5000, -75.034
1036.6000, -75.664
1036.7000, -75.443
1036.8000, -74.932
1036.9000, -75.331
1037.0000, -75.615
1037.1000, -75.406
1037.2000, -74.323
1037.3000, -76.386
1037.4000, -75.598
1037.5000, -74.664
1037.6000, -74.979
1037.7000, -75.286
1037.8000, -76.476
1037.9000, -74.647
1038.0000, -76.831
1038.1000, -74.732
1038.2000, -75.941
1038.3000, -75.082
1038.4000, -75.325
1038.5000, -75.376
1038.6000, -75.274
1038.7000, -75.418
1038.8000, -75.104
1038.9000, -75.734
1039.0000, -76.045
1039.1000, -75.744
1039.2000, -75.678
1039.3000, -74.506
1039.4000, -75.681
1039.5000, -75.996
1039.6000, -74.684
1039.7000, -75.779
1039.8000, -75.044
1039.9000, -75.685
1040.0000, -75.055
1040.1000, -76.850
1040.2000, -75.461
1040.3000, -75.140
1040.4000, -75.235
1040.5000, -75.399
1040.6000, -75.441
1040.7000, -75.467
1040.8000, -75.124
1040.9000, -75.369
1041.0000, -75.784
1041.1000, -75.693
1041.2000, -74.418
1041.3000, -74.679
1041.4000, -75.661
1041.5000, -75.518
1041.6000, -75.584
1041.7000, -75.223
1041.8000, -75.761
1041.9000, -75.208
1042.0000, -75.679
1042.1000, -75.038
1042.2000, -76.017
1042.3000, -75.388
1042.4000, -75.898
1042.5000, -74.994
1042.6000, -74.972
1042.7000, -74.444
1042.8000, -74.831
1042.9000, -75.398
1043.0000, -76.974
1043.1000, -74.396
1043.2000, -75.799
1043.3000, -75.821
1043.4000, -75.132
1043.5000, -75.422
1043.6000, -74.221
1043.7000, -74.699
1043.8000, -75.786
1043.9000, -74.271
1044.0000, -76.485
1044.1000, -73.847
1044.2000, -75.380
1044.3000, -75.454
1044.4000, -74.637
1044.5000, -75.160
1044.6000, -74.722
1044.7000, -74.415
1044.8000, -74.966
1044.9000, -73.061
1045.0000, -73.090
1045.1000, -74.764
1045.2000, -74.426
1045.3000, -72.976
1045.4000, -73.416
1045.5000, -73.224
1045.6000, -73.340
1045.7000, -73.089
1045.8000, -73.314
1045.9000, -73.443
1046.0000, -73.486
1046.1000, -74.306
1046.2000, -74.856
1046.3000, -74.003
1046.4000, -73.808
1046.5000, -74.150
1046.6000, -74.173
1046.7000, -74.635
1046.8000, -74.840
1046.9000, -73.536
1047.0000, -74.589
1047.1000, -73.409
1047.2000, -74.930
1047.3000, -74.117
1047.4000, -74.309
1047.5000, -74.935
1047.6000, -74.895
1047.7000, -73.364
1047.8000, -75.275
1047.9000, -73.717
1048.0000, -73.743
1048.1000, -73.565
1048.2000, -74.397
1048.3000, -73.915
1048.4000, -75.481
1048.5000, -73.947
1048.6000, -75.483
1048.7000, -73.280
1048.8000, -74.285
1048.9000, -73.682
1049.0000, -73.457
1049.1000, -73.792
1049.2000, -73.988
1049.3000, -73.835
1049.4000, -73.917
1049.5000, -74.356
1049.6000, -73.574
1049.7000, -73.342
1049.8000, -73.950
1049.9000, -73.361
1050.0000, -71.287
1050.1000, -73.272
1050.2000, -72.937
1050.3000, -73.777
1050.4000, -73.836
1050.5000, -73.217
1050.6000, -73.105
1050.7000, -73.142
1050.8000, -72.842
1050.9000, -72.832
1051.0000, -72.771
1051.1000, -71.697
1051.2000, -71.947
1051.3000, -72.327
1051.4000, -72.434
1051.5000, -72.010
1051.6000, -71.359
1051.7000, -70.766
1051.8000, -69.492
1051.9000, -70.018
1052.0000, -70.100
1052.1000, -70.302
1052.2000, -68.821
1052.3000, -67.971
1052.4000, -68.210
1052.5000, -67.986
1052.6000, -67.449
1052.7000, -67.201
1052.8000, -67.015
1052.9000, -66.947
1053.0000, -66.891
1053.1000, -66.493
1053.2000, -65.895
1053.3000, -65.060
1053.4000, -64.564
1053.5000, -63.105
1053.6000, -61.992
1053.7000, -59.815
1053.8000, -57.933
1053.9000, -56.470
1054.0000, -55.040
1054.1000, -53.372
1054.2000, -51.926
1054.3000, -51.066
1054.4000, -50.571
1054.5000, -49.990
1054.6000, -49.851
1054.7000, -49.512
1054.8000, -49.774
1054.9000, -50.084
1055.0000, -50.595
1055.1000, -51.082
1055.2000, -51.746
1055.3000, -52.756
1055.4000, -53.793
1055.5000, -55.104
1055.6000, -56.790
1055.7000, -58.272
1055.8000, -59.140
1055.9000, -59.833
1056.0000, -60.698
1056.1000, -60.830
1056.2000, -61.090
1056.3000, -60.843
1056.4000, -61.207
1056.5000, -61.283
1056.6000, -61.576
1056.7000, -61.793
1056.8000, -62.412
1056.9000, -63.207
1057.0000, -63.488
1057.1000, -63.354
1057.2000, -63.083
1057.3000, -62.861
1057.4000, -62.514
1057.5000, -62.157
1057.6000, -61.828
1057.7000, -61.459
1057.8000, -60.846
1057.9000, -60.650
1058.0000, -60.262
1058.1000, -59.761
1058.2000, -59.388
1058.3000, -59.158
1058.4000, -58.479
1058.5000, -58.320
1058.6000, -57.843
1058.7000, -57.370
1058.8000, -57.093
1058.9000, -56.620
1059.0000, -56.121
1059.1000, -55.863
1059.2000, -55.430
1059.3000, -55.019
1059.4000, -54.495
1059.5000, -54.200
1059.6000, -53.878
1059.7000, -53.375
1059.8000, -52.981
1059.9000, -52.407
1060.0000, -52.241
1060.1000, -51.709
1060.2000, -51.436
1060.3000, -51.012
1060.4000, -50.626
1060.5000, -50.264
1060.6000, -49.690
1060.7000, -49.186
1060.8000, -48.683
1060.9000, -47.849
1061.0000, -47.460
1061.1000, -46.861
1061.2000, -46.134
1061.3000, -45.541
1061.4000, -45.105
1061.5000, -44.588
1061.6000, -44.346
1061.7000, -44.223
1061.8000, -43.988
1061.9000, -43.787
1062.0000, -43.567
1062.1000, -43.773
1062.2000, -43.459
1062.3000, -43.123
1062.4000, -42.932
1062.5000, -42.670
1062.6000, -42.220
1062.7000, -41.941
1062.8000, -41.732
1062.9000, -41.414
1063.0000, -40.898
1063.1000, -40.508
1063.2000, -40.363
1063.3000, -39.647
1063.4000, -39.053
1063.5000, -38.342
1063.6000, -36.550
1063.7000, -32.442
1063.8000, -28.091
1063.9000, -25.411
1064.0000, -24.044
1064.1000, -22.651
1064.2000, -21.198
1064.3000, -17.185
1064.4000, -14.707
1064.5000, -14.167
1064.6000, -14.310
1064.7000, -14.398
1064.8000, -14.570
1064.9000, -14.818
1065.0000, -16.239
1065.1000, -20.661
1065.2000, -33.167
1065.3000, -37.529
1065.4000, -39.301
1065.5000, -40.513
1065.6000, -41.223
1065.7000, -41.737
1065.8000, -42.648
1065.9000, -43.401
1066.0000, -43.882
1066.1000, -44.221
1066.2000, -44.440
1066.3000, -44.630
1066.4000, -44.602
1066.5000, -44.684
1066.6000, -44.530
1066.7000, -44.403
1066.8000, -44.268
1066.9000, -43.935
1067.0000, -43.708
1067.1000, -43.456
1067.2000, -43.085
1067.3000, -42.783
1067.4000, -42.575
1067.5000, -42.232
1067.6000, -41.865
1067.7000, -41.515
1067.8000, -41.199
1067.9000, -40.955
1068.0000, -40.675
1068.1000, -40.224
1068.2000, -39.927
1068.3000, -39.625
1068.4000, -39.285
1068.5000, -38.996
1068.6000, -38.740
1068.7000, -38.289
1068.8000, -38.009
1068.9000, -37.659
1069.0000, -37.340
1069.1000, -37.061
1069.2000, -36.665
1069.3000, -36.395
1069.4000, -36.059
1069.5000, -35.670
1069.6000, -35.486
1069.7000, -35.078
1069.8000, -34.778
1069.9000, -34.489
1070.0000, -34.099
1070.1000, -33.737
1070.2000, -33.440
1070.3000, -33.128
1070.4000, -32.810
1070.5000, -32.429
1070.6000, -32.149
1070.7000, -31.803
1070.8000, -31.443
1070.9000, -31.073
1071.0000, -30.687
1071.1000, -30.364
1071.2000, -30.113
1071.3000, -29.637
1071.4000, -29.338
1071.5000, -28.972
1071.6000, -28.592
1071.7000, -28.037
1071.8000, -27.756
1071.9000, -27.442
1072.0000, -27.010
1072.1000, -26.648
1072.2000, -26.292
1072.3000, -25.830
1072.4000, -25.548
1072.5000, -25.008
1072.6000, -24.789
1072.7000, -24.261
1072.8000, -23.910
1072.9000, -23.603
1073.0000, -23.114
1073.1000, -22.822
1073.2000, -22.526
1073.3000, -22.262
1073.4000, -21.961
1073.5000, -21.881
1073.6000, -21.414
1073.7000, -21.138
1073.8000, -20.825
1073.9000, -20.437
1074.0000, -20.056
1074.1000, -19.793
1074.2000, -19.481
1074.3000, -19.291
1074.4000, -19.117
1074.5000, -19.034
1074.6000, -18.755
1074.7000, -18.784
1074.8000, -18.620
1074.9000, -18.461
1075.0000, -18.217
1075.1000, -17.876
1075.2000, -17.493
1075.3000, -17.057
1075.4000, -16.630
1075.5000, -16.079
1075.6000, -15.594
1075.7000, -15.269
1075.8000, -14.850
1075.9000, -14.563
1076.0000, -14.311
1076.1000, -14.205
1076.2000, -14.099
1076.3000, -14.125
1076.4000, -14.247
1076.5000, -14.421
1076.6000, -14.727
1076.7000, -15.002
1076.8000, -15.337
1076.9000, -15.680
1077.0000, -16.032
1077.1000, -16.363
1077.2000, -16.664
1077.3000, -16.953
1077.4000, -17.180
1077.5000, -17.466
1077.6000, -17.739
1077.7000, -17.966
1077.8000, -18.112
1077.9000, -18.267
1078.0000, -18.416
1078.1000, -18.583
1078.2000, -18.785
1078.3000, -19.010
1078.4000, -19.085
1078.5000, -19.234
1078.6000, -19.362
1078.7000, -19.501
1078.8000, -19.724
1078.9000, -19.806
1079.0000, -20.073
1079.1000, -20.245
1079.2000, -20.381
1079.3000, -20.433
1079.4000, -20.647
1079.5000, -20.835
1079.6000, -20.958
1079.7000, -21.044
1079.8000, -21.240
1079.9000, -21.334
1080.0000, -21.504
1080.1000, -21.634
1080.2000, -21.723
1080.3000, -21.864
1080.4000, -21.923
1080.5000, -22.166
1080.6000, -22.099
1080.7000, -22.225
1080.8000, -22.275
1080.9000, -22.419
1081.0000, -22.393
1081.1000, -22.494
1081.2000, -22.563
1081.3000, -22.605
1081.4000, -22.600
1081.5000, -22.634
1081.6000, -22.704
1081.7000, -22.861
1081.8000, -22.829
1081.9000, -22.916
1082.0000, -22.961
1082.1000, -23.014
1082.2000, -22.967
1082.3000, -23.039
1082.4000, -23.048
1082.5000, -23.176
1082.6000, -23.205
1082.7000, -23.229
1082.8000, -23.234
1082.9000, -23.310
1083.0000, -23.400
1083.1000, -23.412
1083.2000, -23.501
1083.3000, -23.519
1083.4000, -23.457
1083.5000, -23.650
1083.6000, -23.574
1083.7000, -23.593
1083.8000, -23.378
1083.9000, -23.685
1084.0000, -23.669
1084.1000, -23.574
1084.2000, -23.613
1084.3000, -23.714
1084.4000, -23.684
1084.5000, -23.745
1084.6000, -23.862
1084.7000, -23.823
1084.8000, -23.889
1084.9000, -23.968
1085.0000, -24.073
1085.1000, -24.224
1085.2000, -24.479
1085.3000, -24.563
1085.4000, -24.620
1085.5000, -24.893
1085.6000, -24.984
1085.7000, -25.130
1085.8000, -25.363
1085.9000, -25.597
1086.0000, -25.653
1086.1000, -25.913
1086.2000, -26.160
1086.3000, -25.964
1086.4000, -26.286
1086.5000, -26.540
1086.6000, -26.702
1086.7000, -26.791
1086.8000, -26.968
1086.9000, -27.077
1087.0000, -27.253
1087.1000, -27.541
1087.2000, -27.601
1087.3000, -27.729
1087.4000, -27.853
1087.5000, -28.180
1087.6000, -28.058
1087.7000, -28.475
1087.8000, -28.571
1087.9000, -28.925
1088.0000, -28.891
1088.1000, -29.146
1088.2000, -29.194
1088.3000, -29.527
1088.4000, -29.747
1088.5000, -29.740
1088.6000, -30.000
1088.7000, -30.296
1088.8000, -30.454
1088.9000, -30.666
1089.0000, -30.805
1089.1000, -31.054
1089.2000, -31.106
1089.3000, -31.502
1089.4000, -31.443
1089.5000, -31.778
1089.6000, -31.917
1089.7000, -32.105
1089.8000, -32.226
1089.9000, -32.364
1090.0000, -32.590
1090.1000, -32.756
1090.2000, -32.869
1090.3000, -33.036
1090.4000, -33.287
1090.5000, -33.344
1090.6000, -33.625
1090.7000, -33.794
1090.8000, -34.025
1090.9000, -34.241
1091.0000, -34.235
1091.1000, -34.703
1091.2000, -34.801
1091.3000, -35.076
1091.4000, -35.225
1091.5000, -35.612
1091.6000, -35.826
1091.7000, -36.107
1091.8000, -36.232
1091.9000, -36.584
1092.0000, -36.769
1092.1000, -37.022
1092.2000, -37.258
1092.3000, -37.458
1092.4000, -37.527
1092.5000, -37.922
1092.6000, -38.122
1092.7000, -38.269
1092.8000, -38.467
1092.9000, -38.678
1093.0000, -38.838
1093.1000, -39.146
1093.2000, -39.226
1093.3000, -39.480
1093.4000, -39.780
1093.5000, -39.889
1093.6000, -40.038
1093.7000, -40.271
1093.8000, -40.392
1093.9000, -40.668
1094.0000, -40.862
1094.1000, -40.979
1094.2000, -41.270
1094.3000, -41.361
1094.4000, -41.643
1094.5000, -41.740
1094.6000, -42.097
1094.7000, -42.097
1094.8000, -42.443
1094.9000, -42.500
1095.0000, -42.679
1095.1000, -42.872
1095.2000, -43.041
1095.3000, -43.341
1095.4000, -43.379
1095.5000, -43.699
1095.6000, -43.829
1095.7000, -43.941
1095.8000, -43.997
1095.9000, -44.219
1096.0000, -44.373
1096.1000, -44.421
1096.2000, -44.570
1096.3000, -44.663
1096.4000, -44.831
1096.5000, -44.891
1096.6000, -44.952
1096.7000, -45.058
1096.8000, -45.070
1096.9000, -45.199
1097.0000, -45.196
1097.1000, -45.239
1097.2000, -45.196
1097.3000, -45.342
1097.4000, -45.345
1097.5000, -45.317
1097.6000, -45.472
1097.7000, -45.433
1097.8000, -45.360
1097.9000, -45.472
1098.0000, -45.460
1098.1000, -45.427
1098.2000, -45.426
1098.3000, -45.469
1098.4000, -45.392
1098.5000, -45.452
1098.6000, -45.417
1098.7000, -45.348
1098.8000, -45.324
1098.9000, -45.241
1099.0000, -45.295
1099.1000, -45.217
1099.2000, -45.143
1099.3000, -45.084
1099.4000, -45.020
1099.5000, -45.046
1099.6000, -44.934
1099.7000, -44.936
1099.8000, -44.878
1099.9000, -44.831
1100.0000, -44.774
1100.1000, -44.744
1100.2000, -44.591
1100.3000, -44.537
1100.4000, -44.517
1100.5000, -44.462
1100.6000, -44.375
1100.7000, -44.347
1100.8000, -44.256
1100.9000, -44.219
1101.0000, -44.074
1101.1000, -43.991
1101.2000, -43.930
1101.3000, -43.805
1101.4000, -43.822
1101.5000, -43.629
1101.6000, -43.553
1101.7000, -43.474
1101.8000, -43.370
1101.9000, -43.352
1102.0000, -43.267
1102.1000, -43.110
1102.2000, -43.028
1102.3000, -42.893
1102.4000, -42.814
1102.5000, -42.798
1102.6000, -42.661
1102.7000, -42.579
1102.8000, -42.397
1102.9000, -42.362
1103.0000, -42.230
1103.1000, -42.097
1103.2000, -41.984
1103.3000, -41.861
1103.4000, -41.782
1103.5000, -41.663
1103.6000, -41.604
1103.7000, -41.412
1103.8000, -41.290
1103.9000, -41.161
1104.0000, -41.065
1104.1000, -40.936
1104.2000, -40.789
1104.3000, -40.809
1104.4000, -40.598
1104.5000, -40.434
1104.6000, -40.326
1104.7000, -40.180
1104.8000, -40.028
1104.9000, -39.886
1105.0000, -39.783
1105.1000, -39.691
1105.2000, -39.491
1105.3000, -39.373
1105.4000, -39.199
1105.5000, -39.018
1105.6000, -38.974
1105.7000, -38.844
1105.8000, -38.720
1105.9000, -38.522
1106.0000, -38.367
1106.1000, -38.204
1106.2000, -38.052
1106.3000, -37.910
1106.4000, -37.728
1106.5000, -37.659
1106.6000, -37.487
1106.7000, -37.281
1106.8000, -37.128
1106.9000, -37.048
1107.0000, -36.870
1107.1000, -36.680
1107.2000, -36.523
1107.3000, -36.383
1107.4000, -36.231
1107.5000, -36.110
1107.6000, -35.902
1107.7000, -35.720
1107.8000, -35.614
1107.9000, -35.431
1108.0000, -35.244
1108.1000, -35.077
1108.2000, -34.964
1108.3000, -34.793
1108.4000, -34.642
1108.5000, -34.494
1108.6000, -34.295
1108.7000, -34.152
1108.8000, -34.002
1108.9000, -33.834
1109.0000, -33.667
1109.1000, -33.542
1109.2000, -33.419
1109.3000, -33.185
1109.4000, -33.050
1109.5000, -32.890
1109.6000, -32.712
1109.7000, -32.556
1109.8000, -32.408
1109.9000, -32.207
1110.0000, -32.094
1110.1000, -31.936
1110.2000, -31.696
1110.3000, -31.566
1110.4000, -31.392
1110.5000, -31.278
1110.6000, -31.136
1110.7000, -31.037
1110.8000, -30.814
1110.9000, -30.676
1111.0000, -30.513
1111.1000, -30.306
1111.2000, -30.215
1111.3000, -30.004
1111.4000, -29.821
1111.5000, -29.663
1111.6000, -29.538
1111.7000, -29.348
1111.8000, -29.215
1111.9000, -28.986
1112.0000, -28.857
1112.1000, -28.768
1112.2000, -28.596
1112.3000, -28.380
1112.4000, -28.191
1112.5000, -28.073
1112.6000, -27.873
1112.7000, -27.664
1112.8000, -27.526
1112.9000, -27.391
1113.0000, -27.236
1113.1000, -26.997
1113.2000, -26.871
1113.3000, -26.675
1113.4000, -26.529
1113.5000, -26.320
1113.6000, -26.158
1113.7000, -25.994
1113.8000, -25.843
1113.9000, -25.648
1114.0000, -25.504
1114.1000, -25.305
1114.2000, -25.176
1114.3000, -24.976
1114.4000, -24.839
1114.5000, -24.623
1114.6000, -24.479
1114.7000, -24.335
1114.8000, -24.124
1114.9000, -24.022
1115.0000, -23.890
1115.1000, -23.644
1115.2000, -23.492
1115.3000, -23.349
1115.4000, -23.193
1115.5000, -23.011
1115.6000, -22.842
1115.7000, -22.805
1115.8000, -22.591
1115.9000, -22.431
1116.0000, -22.270
1116.1000, -22.090
1116.2000, -21.993
1116.3000, -21.848
1116.4000, -21.671
1116.5000, -21.545
1116.6000, -21.417
1116.7000, -21.251
1116.8000, -21.126
1116.9000, -21.037
1117.0000, -20.900
1117.1000, -20.742
1117.2000, -20.636
1117.3000, -20.536
1117.4000, -20.428
1117.5000, -20.343
1117.6000, -20.146
1117.7000, -20.092
1117.8000, -20.019
1117.9000, -19.951
1118.0000, -19.827
1118.1000, -19.786
1118.2000, -19.678
1118.3000, -19.611
1118.4000, -19.513
1118.5000, -19.500
1118.6000, -19.373
1118.7000, -19.285
1118.8000, -19.259
1118.9000, -19.218
1119.0000, -19.140
1119.1000, -19.090
1119.2000, -19.034
1119.3000, -19.000
1119.4000, -18.913
1119.5000, -18.867
1119.6000, -18.772
1119.7000, -18.711
1119.8000, -18.638
1119.9000, -18.578
1120.0000, -18.505
1120.1000, -18.406
1120.2000, -18.244
1120.3000, -18.273
1120.4000, -18.121
1120.5000, -18.035
1120.6000, -17.918
1120.7000, -17.773
1120.8000, -17.650
1120.9000, -17.558
1121.0000, -17.389
1121.1000, -17.211
1121.2000, -17.102
1121.3000, -16.987
1121.4000, -16.801
1121.5000, -16.639
1121.6000, -16.497
1121.7000, -16.333
1121.8000, -16.180
1121.9000, -15.981
1122.0000, -15.868
1122.1000, -15.766
1122.2000, -15.607
1122.3000, -15.508
1122.4000, -15.353
1122.5000, -15.262
1122.6000, -15.163
1122.7000, -15.104
1122.8000, -15.100
1122.9000, -15.013
1123.0000, -15.033
1123.1000, -15.034
1123.2000, -15.072
1123.3000, -15.131
1123.4000, -15.179
1123.5000, -15.323
1123.6000, -15.373
1123.7000, -15.500
1123.8000, -15.647
1123.9000, -15.816
1124.0000, -15.912
1124.1000, -16.124
1124.2000, -16.257
1124.3000, -16.442
1124.4000, -16.589
1124.5000, -16.770
1124.6000, -16.936
1124.7000, -17.113
1124.8000, -17.286
1124.9000, -17.500
1125.0000, -17.669
1125.1000, -17.865
1125.2000, -18.014
1125.3000, -18.222
1125.4000, -18.394
1125.5000, -18.557
1125.6000, -18.732
1125.7000, -18.809
1125.8000, -19.000
1125.9000, -19.131
1126.0000, -19.311
1126.1000, -19.455
1126.2000, -19.548
1126.3000, -19.638
1126.4000, -19.817
1126.5000, -19.895
1126.6000, -20.013
1126.7000, -20.163
1126.8000, -20.163
1126.9000, -20.299
1127.0000, -20.405
1127.1000, -20.447
1127.2000, -20.568
1127.3000, -20.620
1127.4000, -20.655
1127.5000, -20.787
1127.6000, -20.857
1127.7000, -20.916
1127.8000, -20.859
1127.9000, -21.003
1128.0000, -20.988
1128.1000, -21.073
1128.2000, -21.024
1128.3000, -21.045
1128.4000, -21.122
1128.5000, -21.049
1128.6000, -21.104
1128.7000, -21.169
1128.8000, -21.168
1128.9000, -21.132
1129.0000, -21.110
1129.1000, -21.160
1129.2000, -21.185
1129.3000, -21.118
1129.4000, -21.138
1129.5000, -21.189
1129.6000, -21.137
1129.7000, -21.159
1129.8000, -21.168
1129.9000, -21.185
1130.0000, -21.174
1130.1000, -21.115
1130.2000, -21.062
1130.3000, -21.131
1130.4000, -21.086
1130.5000, -21.074
1130.6000, -21.196
1130.7000, -21.020
1130.8000, -21.031
1130.9000, -21.088
1131.0000, -21.106
1131.1000, -21.082
1131.2000, -21.148
1131.3000, -21.110
1131.4000, -21.184
1131.5000, -21.160
1131.6000, -21.128
1131.7000, -21.149
1131.8000, -21.152
1131.9000, -21.143
1132.0000, -21.154
1132.1000, -21.148
1132.2000, -21.135
1132.3000, -21.173
1132.4000, -21.241
1132.5000, -21.217
1132.6000, -21.203
1132.7000, -21.198
1132.8000, -21.222
1132.9000, -21.220
1133.0000, -21.266
1133.1000, -21.283
1133.2000, -21.276
1133.3000, -21.273
1133.4000, -21.376
1133.5000, -21.407
1133.6000, -21.364
1133.7000, -21.336
1133.8000, -21.467
1133.9000, -21.402
1134.0000, -21.547
1134.1000, -21.541
1134.2000, -21.514
1134.3000, -21.559
1134.4000, -21.731
1134.5000, -21.740
1134.6000, -21.807
1134.7000, -21.888
1134.8000, -21.925
1134.9000, -21.995
1135.0000, -22.074
1135.1000, -22.091
1135.2000, -22.241
1135.3000, -22.285
1135.4000, -22.308
1135.5000, -22.336
1135.6000, -22.517
1135.7000, -22.521
1135.8000, -22.848
1135.9000, -22.694
1136.0000, -22.814
1136.1000, -22.883
1136.2000, -23.002
1136.3000, -23.051
1136.4000, -23.156
1136.5000, -23.126
1136.6000, -23.328
1136.7000, -23.394
1136.8000, -23.564
1136.9000, -23.594
1137.0000, -23.754
1137.1000, -23.731
1137.2000, -23.863
1137.3000, -23.927
1137.4000, -24.140
1137.5000, -24.187
1137.6000, -24.146
1137.7000, -24.370
1137.8000, -24.400
1137.9000, -24.567
1138.0000, -24.604
1138.1000, -24.845
1138.2000, -24.955
1138.3000, -25.078
1138.4000, -25.118
1138.5000, -25.186
1138.6000, -25.304
1138.7000, -25.379
1138.8000, -25.502
1138.9000, -25.713
1139.0000, -25.666
1139.1000, -25.761
1139.2000, -26.020
1139.3000, -26.086
1139.4000, -26.264
1139.5000, -26.247
1139.6000, -26.369
1139.7000, -26.555
1139.8000, -26.665
1139.9000, -26.747
1140.0000, -27.003
1140.1000, -27.000
1140.2000, -27.127
1140.3000, -27.235
1140.4000, -27.400
1140.5000, -27.499
1140.6000, -27.583
1140.7000, -27.648
1140.8000, -27.894
1140.9000, -27.982
1141.0000, -28.192
1141.1000, -28.351
1141.2000, -28.398
1141.3000, -28.546
1141.4000, -28.616
1141.5000, -28.735
1141.6000, -28.984
1141.7000, -29.190
1141.8000, -29.315
1141.9000, -29.222
1142.0000, -29.441
1142.1000, -29.543
1142.2000, -29.689
1142.3000, -29.921
1142.4000, -29.972
1142.5000, -29.992
1142.6000, -30.120
1142.7000, -30.285
1142.8000, -30.542
1142.9000, -30.618
1143.0000, -30.744
1143.1000, -30.939
1143.2000, -30.930
1143.3000, -31.271
1143.4000, -31.263
1143.5000, -31.351
1143.6000, -31.500
1143.7000, -31.522
1143.8000, -31.856
1143.9000, -31.970
1144.0000, -31.969
1144.1000, -32.434
1144.2000, -32.639
1144.3000, -32.513
1144.4000, -32.783
1144.5000, -32.777
1144.6000, -32.951
1144.7000, -32.990
1144.8000, -33.443
1144.9000, -33.633
1145.0000, -33.601
1145.1000, -33.767
1145.2000, -33.849
1145.3000, -34.000
1145.4000, -34.092
1145.5000, -34.246
1145.6000, -34.470
1145.7000, -34.662
1145.8000, -34.762
1145.9000, -34.867
1146.0000, -35.057
1146.1000, -35.254
1146.2000, -35.439
1146.3000, -35.463
1146.4000, -35.714
1146.5000, -35.803
1146.6000, -36.024
1146.7000, -36.354
1146.8000, -36.389
1146.9000, -36.383
1147.0000, -36.485
1147.1000, -36.587
1147.2000, -36.867
1147.3000, -37.102
1147.4000, -37.262
1147.5000, -37.372
1147.6000, -37.559
1147.7000, -37.581
1147.8000, -37.722
1147.9000, -37.859
1148.0000, -37.908
1148.1000, -38.243
1148.2000, -38.186
1148.3000, -38.427
1148.4000, -38.537
1148.5000, -38.776
1148.6000, -38.782
1148.7000, -38.991
1148.8000, -39.211
1148.9000, -39.321
1149.0000, -39.378
1149.1000, -39.694
1149.2000, -39.638
1149.3000, -39.686
1149.4000, -39.953
1149.5000, -39.877
1149.6000, -40.137
1149.7000, -40.309
1149.8000, -40.712
1149.9000, -40.833
1150.0000, -40.860
1150.1000, -40.916
1150.2000, -41.104
1150.3000, -41.110
1150.4000, -41.236
1150.5000, -41.292
1150.6000, -41.640
1150.7000, -41.715
1150.8000, -41.808
1150.9000, -41.925
1151.0000, -42.136
1151.1000, -42.140
1151.2000, -42.196
1151.3000, -42.393
1151.4000, -42.370
1151.5000, -42.507
1151.6000, -42.660
1151.7000, -42.813
1151.8000, -42.900
1151.9000, -43.054
1152.0000, -43.009
1152.1000, -42.953
1152.2000, -43.187
1152.3000, -43.237
1152.4000, -43.689
1152.5000, -43.413
1152.6000, -43.501
1152.7000, -43.657
1152.8000, -43.582
1152.9000, -43.711
1153.0000, -43.710
1153.1000, -43.872
1153.2000, -43.874
1153.3000, -43.855
1153.4000, -43.798
1153.5000, -44.070
1153.6000, -43.918
1153.7000, -43.882
1153.8000, -44.081
1153.9000, -44.098
1154.0000, -44.072
1154.1000, -44.161
1154.2000, -44.042
1154.3000, -43.963
1154.4000, -44.106
1154.5000, -44.189
1154.6000, -44.019
1154.7000, -44.106
1154.8000, -44.033
1154.9000, -44.003
1155.0000, -43.961
1155.1000, -43.946
1155.2000, -43.918
1155.3000, -43.859
1155.4000, -43.818
1155.5000, -43.827
1155.6000, -43.808
1155.7000, -43.719
1155.8000, -43.644
1155.9000, -43.693
1156.0000, -43.452
1156.1000, -43.354
1156.2000, -43.476
1156.3000, -43.342
1156.4000, -43.188
1156.5000, -43.153
1156.6000, -43.266
1156.7000, -43.159
1156.8000, -42.996
1156.9000, -42.970
1157.0000, -42.983
1157.1000, -42.741
1157.2000, -42.618
1157.3000, -42.658
1157.4000, -42.610
1157.5000, -42.559
1157.6000, -42.512
1157.7000, -42.293
1157.8000, -42.255
1157.9000, -42.157
1158.0000, -42.018
1158.1000, -41.968
1158.2000, -41.907
1158.3000, -41.784
1158.4000, -41.720
1158.5000, -41.517
1158.6000, -41.454
1158.7000, -41.233
1158.8000, -41.209
1158.9000, -41.193
1159.0000, -41.011
1159.1000, -40.893
1159.2000, -40.871
1159.3000, -40.750
1159.4000, -40.550
1159.5000, -40.450
1159.6000, -40.311
1159.7000, -40.154
1159.8000, -40.086
1159.9000, -40.032
1160.0000, -39.793
1160.1000, -39.553
1160.2000, -39.603
1160.3000, -39.443
1160.4000, -39.253
1160.5000, -39.184
1160.6000, -38.721
1160.7000, -38.691
1160.8000, -38.625
1160.9000, -38.374
1161.0000, -38.125
1161.1000, -38.010
1161.2000, -38.078
1161.3000, -37.833
1161.4000, -37.475
1161.5000, -37.387
1161.6000, -37.534
1161.7000, -37.195
1161.8000, -36.973
1161.9000, -36.974
1162.0000, -36.796
1162.1000, -36.617
1162.2000, -36.535
1162.3000, -36.616
1162.4000, -36.365
1162.5000, -36.077
1162.6000, -36.037
1162.7000, -35.873
1162.8000, -35.859
1162.9000, -35.788
1163.0000, -35.660
1163.1000, -35.435
1163.2000, -35.348
1163.3000, -35.105
1163.4000, -35.050
1163.5000, -34.909
1163.6000, -34.804
1163.7000, -34.669
1163.8000, -34.588
1163.9000, -34.434
1164.0000, -34.304
1164.1000, -34.105
1164.2000, -34.053
1164.3000, -33.953
1164.4000, -33.822
1164.5000, -33.696
1164.6000, -33.531
1164.7000, -33.440
1164.8000, -33.286
1164.9000, -33.188
1165.0000, -33.095
1165.1000, -33.008
1165.2000, -32.735
1165.3000, -32.662
1165.4000, -32.554
1165.5000, -32.410
1165.6000, -32.335
1165.7000, -32.084
1165.8000, -31.973
1165.9000, -31.885
1166.0000, -31.763
1166.1000, -31.561
1166.2000, -31.563
1166.3000, -31.364
1166.4000, -31.140
1166.5000, -31.029
1166.6000, -30.967
1166.7000, -30.792
1166.8000, -30.681
1166.9000, -30.526
1167.0000, -30.392
1167.1000, -30.253
1167.2000, -30.145
1167.3000, -29.977
1167.4000, -29.786
1167.5000, -29.726
1167.6000, -29.592
1167.7000, -29.441
1167.8000, -29.310
1167.9000, -29.203
1168.0000, -29.019
1168.1000, -28.884
1168.2000, -28.658
1168.3000, -28.604
1168.4000, -28.533
1168.5000, -28.373
1168.6000, -28.162
1168.7000, -28.051
1168.8000, -27.879
1168.9000, -27.750
1169.0000, -27.674
1169.1000, -27.521
1169.2000, -27.463
1169.3000, -27.264
1169.4000, -27.135
1169.5000, -27.067
1169.6000, -26.912
1169.7000, -26.736
1169.8000, -26.655
1169.9000, -26.489
1170.0000, -26.332
1170.1000, -26.288
1170.2000, -26.090
1170.3000, -25.984
1170.4000, -25.864
1170.5000, -25.784
1170.6000, -25.590
1170.7000, -25.514
1170.8000, -25.351
1170.9000, -25.279
1171.0000, -25.129
1171.1000, -25.016
1171.2000, -24.897
1171.3000, -24.769
1171.4000, -24.656
1171.5000, -24.574
1171.6000, -24.374
1171.7000, -24.349
1171.8000, -24.224
1171.9000, -24.052
1172.0000, -23.945
1172.1000, -23.878
1172.2000, -23.745
1172.3000, -23.586
1172.4000, -23.478
1172.5000, -23.340
1172.6000, -23.131
1172.7000, -23.080
1172.8000, -22.986
1172.9000, -22.833
1173.0000, -22.706
1173.1000, -22.579
1173.2000, -22.475
1173.3000, -22.313
1173.4000, -22.207
1173.5000, -22.086
1173.6000, -21.974
1173.7000, -21.832
1173.8000, -21.728
1173.9000, -21.594
1174.0000, -21.464
1174.1000, -21.396
1174.2000, -21.138
1174.3000, -21.056
1174.4000, -20.963
1174.5000, -20.856
1174.6000, -20.749
1174.7000, -20.576
1174.8000, -20.491
1174.9000, -20.324
1175.0000, -20.275
1175.1000, -20.134
1175.2000, -20.028
1175.3000, -19.916
1175.4000, -19.831
1175.5000, -19.691
1175.6000, -19.583
1175.7000, -19.502
1175.8000, -19.444
1175.9000, -19.247
1176.0000, -19.152
1176.1000, -19.049
1176.2000, -18.958
1176.3000, -18.797
1176.4000, -18.788
1176.5000, -18.694
1176.6000, -18.664
1176.7000, -18.501
1176.8000, -18.386
1176.9000, -18.361
1177.0000, -18.291
1177.1000, -18.202
1177.2000, -18.141
1177.3000, -18.022
1177.4000, -17.892
1177.5000, -17.888
1177.6000, -17.788
1177.7000, -17.664
1177.8000, -17.664
1177.9000, -17.593
1178.0000, -17.478
1178.1000, -17.483
1178.2000, -17.371
1178.3000, -17.326
1178.4000, -17.345
1178.5000, -17.242
1178.6000, -17.187
1178.7000, -17.126
1178.8000, -17.120
1178.9000, -17.080
1179.0000, -17.055
1179.1000, -17.000
1179.2000, -17.009
1179.3000, -16.941
1179.4000, -16.941
1179.5000, -16.921
1179.6000, -16.920
1179.7000, -16.896
1179.8000, -16.883
1179.9000, -16.844
1180.0000, -16.850
1180.1000, -16.837
1180.2000, -16.841
1180.3000, -16.848
1180.4000, -16.872
1180.5000, -16.869
1180.6000, -16.941
1180.7000, -16.944
1180.8000, -16.925
1180.9000, -16.998
1181.0000, -17.053
1181.1000, -17.055
1181.2000, -17.068
1181.3000, -17.107
1181.4000, -17.098
1181.5000, -17.194
1181.6000, -17.200
1181.7000, -17.266
1181.8000, -17.349
1181.9000, -17.369
1182.0000, -17.488
1182.1000, -17.475
1182.2000, -17.515
1182.3000, -17.568
1182.4000, -17.671
1182.5000, -17.743
1182.6000, -17.773
1182.7000, -17.845
1182.8000, -17.920
1182.9000, -17.985
1183.0000, -18.093
1183.1000, -18.175
1183.2000, -18.261
1183.3000, -18.325
1183.4000, -18.384
1183.5000, -18.498
1183.6000, -18.581
1183.7000, -18.713
1183.8000, -18.777
1183.9000, -18.906
1184.0000, -18.899
1184.1000, -18.980
1184.2000, -19.134
1184.3000, -19.178
1184.4000, -19.242
1184.5000, -19.386
1184.6000, -19.511
1184.7000, -19.568
1184.8000, -19.657
1184.9000, -19.740
1185.0000, -19.845
1185.1000, -19.893
1185.2000, -20.021
1185.3000, -20.111
1185.4000, -20.235
1185.5000, -20.353
1185.6000, -20.408
1185.7000, -20.451
1185.8000, -20.638
1185.9000, -20.803
1186.0000, -20.792
1186.1000, -20.853
1186.2000, -20.972
1186.3000, -21.049
1186.4000, -21.119
1186.5000, -21.204
1186.6000, -21.344
1186.7000, -21.461
1186.8000, -21.555
1186.9000, -21.618
1187.0000, -21.745
1187.1000, -21.790
1187.2000, -21.899
1187.3000, -21.932
1187.4000, -21.955
1187.5000, -22.186
1187.6000, -22.219
1187.7000, -22.354
1187.8000, -22.318
1187.9000, -22.577
1188.0000, -22.526
1188.1000, -22.568
1188.2000, -22.666
1188.3000, -22.772
1188.4000, -22.868
1188.5000, -22.856
1188.6000, -22.939
1188.7000, -23.077
1188.8000, -23.028
1188.9000, -23.125
1189.0000, -23.155
1189.1000, -23.213
1189.2000, -23.359
1189.3000, -23.473
1189.4000, -23.481
1189.5000, -23.528
1189.6000, -23.552
1189.7000, -23.702
1189.8000, -23.723
1189.9000, -23.694
1190.0000, -23.801
1190.1000, -23.973
1190.2000, -23.964
1190.3000, -24.071
1190.4000, -24.012
1190.5000, -23.996
1190.6000, -24.067
1190.7000, -24.151
1190.8000, -24.158
1190.9000, -24.215
1191.0000, -24.377
1191.1000, -24.222
1191.2000, -24.274
1191.3000, -24.480
1191.4000, -24.446
1191.5000, -24.445
1191.6000, -24.452
1191.7000, -24.551
1191.8000, -24.612
1191.9000, -24.570
1192.0000, -24.666
1192.1000, -24.654
1192.2000, -24.718
1192.3000, -24.758
1192.4000, -24.836
1192.5000, -24.962
1192.6000, -25.014
1192.7000, -24.879
1192.8000, -25.018
1192.9000, -25.108
1193.0000, -25.144
1193.1000, -25.266
1193.2000, -25.177
1193.3000, -25.287
1193.4000, -25.384
1193.5000, -25.381
1193.6000, -25.256
1193.7000, -25.448
1193.8000, -25.362
1193.9000, -25.521
1194.0000, -25.480
1194.1000, -25.540
1194.2000, -25.545
1194.3000, -25.760
1194.4000, -25.764
1194.5000, -25.747
1194.6000, -25.803
1194.7000, -26.001
1194.8000, -25.918
1194.9000, -26.028
1195.0000, -26.027
1195.1000, -26.190
1195.2000, -26.198
1195.3000, -26.180
1195.4000, -26.215
1195.5000, -26.389
1195.6000, -26.375
1195.7000, -26.408
1195.8000, -26.498
1195.9000, -26.520
1196.0000, -26.569
1196.1000, -26.610
1196.2000, -26.527
1196.3000, -26.720
1196.4000, -26.716
1196.5000, -26.816
1196.6000, -27.000
1196.7000, -26.990
1196.8000, -26.968
1196.9000, -27.036
1197.0000, -27.287
1197.1000, -27.325
1197.2000, -27.207
1197.3000, -27.489
1197.4000, -27.302
1197.5000, -27.567
1197.6000, -27.556
1197.7000, -27.680
1197.8000, -27.764
1197.9000, -27.807
1198.0000, -27.745
1198.1000, -27.841
1198.2000, -27.985
1198.3000, -28.127
1198.4000, -28.033
1198.5000, -28.319
1198.6000, -28.447
1198.7000, -28.219
1198.8000, -28.575
1198.9000, -28.346
1199.0000, -28.639
1199.1000, -28.593
1199.2000, -28.570
1199.3000, -28.859
1199.4000, -28.959
1199.5000, -29.026
1199.6000, -28.595
1199.7000, -28.963
1199.8000, -28.932
1199.9000, -29.153
1200.0000, -28.769
1200.1000, -29.207
1200.2000, -29.359
1200.3000, -29.603
1200.4000, -28.910
1200.5000, -29.430
1200.6000, -29.604
1200.7000, -30.003
1200.8000, -29.738
1200.9000, -29.641
1201.0000, -30.149
1201.1000, -30.183
1201.2000, -30.185
1201.3000, -30.460
1201.4000, -30.236
1201.5000, -30.233
1201.6000, -30.265
1201.7000, -30.682
1201.8000, -30.662
1201.9000, -30.815
1202.0000, -30.924
1202.1000, -31.342
1202.2000, -30.497
1202.3000, -30.215
1202.4000, -31.090
1202.5000, -31.268
1202.6000, -31.197
1202.7000, -31.383
1202.8000, -31.216
1202.9000, -31.658
1203.0000, -31.367
1203.1000, -31.055
1203.2000, -31.161
1203.3000, -31.878
1203.4000, -31.907
1203.5000, -31.954
1203.6000, -32.370
1203.7000, -32.497
1203.8000, -32.117
1203.9000, -32.275
1204.0000, -33.122
1204.1000, -32.766
1204.2000, -32.750
1204.3000, -33.164
1204.4000, -33.512
1204.5000, -33.128
1204.6000, -33.715
1204.7000, -33.615
1204.8000, -33.910
1204.9000, -33.967
1205.0000, -34.061
1205.1000, -34.208
1205.2000, -34.076
1205.3000, -34.094
1205.4000, -34.373
1205.5000, -34.439
1205.6000, -34.473
1205.7000, -34.651
1205.8000, -34.392
1205.9000, -34.879
1206.0000, -35.044
1206.1000, -35.199
1206.2000, -35.427
1206.3000, -35.228
1206.4000, -35.420
1206.5000, -35.335
1206.6000, -35.748
1206.7000, -35.748
1206.8000, -35.898
1206.9000, -36.180
1207.0000, -35.958
1207.1000, -36.216
1207.2000, -36.444
1207.3000, -36.295
1207.4000, -36.453
1207.5000, -36.542
1207.6000, -36.554
1207.7000, -36.919
1207.8000, -36.944
1207.9000, -37.039
1208.0000, -37.280
1208.1000, -37.367
1208.2000, -37.292
1208.3000, -37.796
1208.4000, -37.745
1208.5000, -37.844
1208.6000, -38.054
1208.7000, -37.934
1208.8000, -37.922
1208.9000, -38.202
1209.0000, -38.017
1209.1000, -38.246
1209.2000, -38.566
1209.3000, -38.781
1209.4000, -38.681
1209.5000, -39.120
1209.6000, -38.651
1209.7000, -39.098
1209.8000, -39.038
1209.9000, -38.838
1210.0000, -39.297
1210.1000, -39.281
1210.2000, -39.167
1210.3000, -39.529
1210.4000, -39.908
1210.5000, -39.729
1210.6000, -39.604
1210.7000, -39.870
1210.8000, -39.716
1210.9000, -39.997
1211.0000, -40.180
1211.1000, -40.540
1211.2000, -40.457
1211.3000, -40.549
1211.4000, -40.475
1211.5000, -40.709
1211.6000, -41.035
1211.7000, -40.967
1211.8000, -41.024
1211.9000, -40.929
1212.0000, -40.909
1212.1000, -41.083
1212.2000, -41.039
1212.3000, -41.362
1212.4000, -41.436
1212.5000, -41.462
1212.6000, -41.460
1212.7000, -41.596
1212.8000, -41.565
1212.9000, -41.632
1213.0000, -41.686
1213.1000, -41.437
1213.2000, -41.976
1213.3000, -41.903
1213.4000, -42.023
1213.5000, -42.101
1213.6000, -41.790
1213.7000, -42.211
1213.8000, -42.221
1213.9000, -41.987
1214.0000, -42.068
1214.1000, -42.298
1214.2000, -42.066
1214.3000, -42.167
1214.4000, -42.279
1214.5000, -42.263
1214.6000, -42.481
1214.7000, -42.361
1214.8000, -42.286
1214.9000, -42.113
1215.0000, -42.122
1215.1000, -42.349
1215.2000, -42.339
1215.3000, -42.290
1215.4000, -42.272
1215.5000, -42.444
1215.6000, -42.379
1215.7000, -42.280
1215.8000, -42.259
1215.9000, -42.193
1216.0000, -42.205
1216.1000, -42.175
1216.2000, -42.399
1216.3000, -42.196
1216.4000, -42.140
1216.5000, -42.190
1216.6000, -41.984
1216.7000, -41.981
1216.8000, -42.002
1216.9000, -41.934
1217.0000, -41.919
1217.1000, -41.833
1217.2000, -41.763
1217.3000, -41.664
1217.4000, -41.536
1217.5000, -41.675
1217.6000, -41.677
1217.7000, -41.664
1217.8000, -41.587
1217.9000, -41.553
1218.0000, -41.469
1218.1000, -41.295
1218.2000, -41.208
1218.3000, -41.139
1218.4000, -41.118
1218.5000, -41.084
1218.6000, -41.040
1218.7000, -40.937
1218.8000, -40.819
1218.9000, -40.763
1219.0000, -40.805
1219.1000, -40.581
1219.2000, -40.529
1219.3000, -40.510
1219.4000, -40.278
1219.5000, -40.303
1219.6000, -40.305
1219.7000, -40.105
1219.8000, -40.030
1219.9000, -39.940
1220.0000, -39.808
1220.1000, -39.777
1220.2000, -39.622
1220.3000, -39.632
1220.4000, -39.545
1220.5000, -39.334
1220.6000, -39.358
1220.7000, -39.256
1220.8000, -39.210
1220.9000, -39.017
1221.0000, -38.997
1221.1000, -38.839
1221.2000, -38.770
1221.3000, -38.690
1221.4000, -38.578
1221.5000, -38.480
1221.6000, -38.392
1221.7000, -38.269
1221.8000, -38.148
1221.9000, -38.007
1222.0000, -37.876
1222.1000, -37.861
1222.2000, -37.682
1222.3000, -37.611
1222.4000, -37.552
1222.5000, -37.485
1222.6000, -37.292
1222.7000, -37.139
1222.8000, -37.130
1222.9000, -36.995
1223.0000, -36.906
1223.1000, -36.691
1223.2000, -36.720
1223.3000, -36.453
1223.4000, -36.350
1223.5000, -36.318
1223.6000, -36.222
1223.7000, -36.012
1223.8000, -36.016
1223.9000, -35.865
1224.0000, -35.723
1224.1000, -35.629
1224.2000, -35.428
1224.3000, -35.316
1224.4000, -35.248
1224.5000, -35.167
1224.6000, -35.037
1224.7000, -34.930
1224.8000, -34.869
1224.9000, -34.731
1225.0000, -34.651
1225.1000, -34.551
1225.2000, -34.367
1225.3000, -34.254
1225.4000, -34.201
1225.5000, -34.062
1225.6000, -33.821
1225.7000, -33.802
1225.8000, -33.664
1225.9000, -33.546
1226.0000, -33.482
1226.1000, -33.341
1226.2000, -33.241
1226.3000, -33.026
1226.4000, -32.942
1226.5000, -32.782
1226.6000, -32.691
1226.7000, -32.538
1226.8000, -32.407
1226.9000, -32.318
1227.0000, -32.163
1227.1000, -32.156
1227.2000, -32.102
1227.3000, -31.830
1227.4000, -31.815
1227.5000, -31.526
1227.6000, -31.374
1227.7000, -31.243
1227.8000, -31.185
1227.9000, -31.122
1228.0000, -30.924
1228.1000, -30.829
1228.2000, -30.786
1228.3000, -30.628
1228.4000, -30.510
1228.5000, -30.460
1228.6000, -30.339
1228.7000, -30.211
1228.8000, -30.079
1228.9000, -29.941
1229.0000, -29.875
1229.1000, -29.682
1229.2000, -29.665
1229.3000, -29.531
1229.4000, -29.312
1229.5000, -29.166
1229.6000, -29.180
1229.7000, -29.017
1229.8000, -28.955
1229.9000, -28.737
1230.0000, -28.689
1230.1000, -28.522
1230.2000, -28.431
1230.3000, -28.333
1230.4000, -28.262
1230.5000, -28.185
1230.6000, -27.989
1230.7000, -27.794
1230.8000, -27.810
1230.9000, -27.731
1231.0000, -27.508
1231.1000, -27.465
1231.2000, -27.386
1231.3000, -27.241
1231.4000, -27.038
1231.5000, -26.976
1231.6000, -26.896
1231.7000, -26.776
1231.8000, -26.768
1231.9000, -26.642
1232.0000, -26.660
1232.1000, -26.439
1232.2000, -26.260
1232.3000, -26.167
1232.4000, -26.121
1232.5000, -25.941
1232.6000, -25.880
1232.7000, -25.854
1232.8000, -25.680
1232.9000, -25.508
1233.0000, -25.487
1233.1000, -25.359
1233.2000, -25.337
1233.3000, -25.184
1233.4000, -25.067
1233.5000, -25.096
1233.6000, -24.939
1233.7000, -24.823
1233.8000, -24.699
1233.9000, -24.597
1234.0000, -24.622
1234.1000, -24.513
1234.2000, -24.497
1234.3000, -24.336
1234.4000, -24.348
1234.5000, -24.146
1234.6000, -24.044
1234.7000, -23.939
1234.8000, -23.944
1234.9000, -23.818
1235.0000, -23.791
1235.1000, -23.768
1235.2000, -23.568
1235.3000, -23.501
1235.4000, -23.462
1235.5000, -23.401
1235.6000, -23.268
1235.7000, -23.289
1235.8000, -23.159
1235.9000, -23.059
1236.0000, -23.090
1236.1000, -22.986
1236.2000, -23.011
1236.3000, -22.860
1236.4000, -22.772
1236.5000, -22.729
1236.6000, -22.676
1236.7000, -22.546
1236.8000, -22.472
1236.9000, -22.457
1237.0000, -22.447
1237.1000, -22.355
1237.2000, -22.269
1237.3000, -22.200
1237.4000, -22.140
1237.5000, -22.042
1237.6000, -22.050
1237.7000, -22.021
1237.8000, -21.852
1237.9000, -21.867
1238.0000, -21.867
1238.1000, -21.872
1238.2000, -21.725
1238.3000, -21.724
1238.4000, -21.734
1238.5000, -21.538
1238.6000, -21.629
1238.7000, -21.598
1238.8000, -21.512
1238.9000, -21.503
1239.0000, -21.417
1239.1000, -21.447
1239.2000, -21.330
1239.3000, -21.279
1239.4000, -21.227
1239.5000, -21.168
1239.6000, -21.196
1239.7000, -21.208
1239.8000, -21.202
1239.9000, -21.125
1240.0000, -21.093
1240.1000, -20.996
1240.2000, -21.054
1240.3000, -21.043
1240.4000, -21.102
1240.5000, -21.046
1240.6000, -21.027
1240.7000, -20.966
1240.8000, -20.941
1240.9000, -20.974
1241.0000, -20.910
1241.1000, -20.859
1241.2000, -20.844
1241.3000, -20.833
1241.4000, -20.878
1241.5000, -20.814
1241.6000, -20.769
1241.7000, -20.795
1241.8000, -20.874
1241.9000, -20.936
1242.0000, -20.820
1242.1000, -20.862
1242.2000, -20.849
1242.3000, -20.834
1242.4000, -20.833
1242.5000, -20.871
1242.6000, -20.971
1242.7000, -20.909
1242.8000, -20.881
1242.9000, -20.936
1243.0000, -20.925
1243.1000, -21.015
1243.2000, -20.978
1243.3000, -20.988
1243.4000, -21.107
1243.5000, -20.985
1243.6000, -21.071
1243.7000, -21.085
1243.8000, -21.166
1243.9000, -21.202
1244.0000, -21.207
1244.1000, -21.226
1244.2000, -21.211
1244.3000, -21.171
1244.4000, -21.338
1244.5000, -21.269
1244.6000, -21.374
1244.7000, -21.374
1244.8000, -21.318
1244.9000, -21.373
1245.0000, -21.412
1245.1000, -21.445
1245.2000, -21.572
1245.3000, -21.595
1245.4000, -21.703
1245.5000, -21.713
1245.6000, -21.749
1245.7000, -21.830
1245.8000, -21.841
1245.9000, -21.876
1246.0000, -21.934
1246.1000, -21.936
1246.2000, -21.990
1246.3000, -22.095
1246.4000, -22.163
1246.5000, -22.175
1246.6000, -22.316
1246.7000, -22.290
1246.8000, -22.389
1246.9000, -22.453
1247.0000, -22.540
1247.1000, -22.441
1247.2000, -22.621
1247.3000, -22.582
1247.4000, -22.725
1247.5000, -22.813
1247.6000, -22.845
1247.7000, -22.930
1247.8000, -23.021
1247.9000, -23.060
1248.0000, -23.067
1248.1000, -23.100
1248.2000, -23.309
1248.3000, -23.335
1248.4000, -23.430
1248.5000, -23.570
1248.6000, -23.558
1248.7000, -23.626
1248.8000, -23.733
1248.9000, -23.816
1249.0000, -23.968
1249.1000, -23.875
1249.2000, -24.050
1249.3000, -24.101
1249.4000, -24.159
1249.5000, -24.323
1249.6000, -24.340
1249.7000, -24.442
1249.8000, -24.574
1249.9000, -24.697
1250.0000, -24.754
1250.1000, -24.868
1250.2000, -24.820
1250.3000, -24.998
1250.4000, -25.130
1250.5000, -25.283
1250.6000, -25.203
1250.7000, -25.402
1250.8000, -25.447
1250.9000, -25.543
1251.0000, -25.713
1251.1000, -25.642
1251.2000, -25.829
1251.3000, -25.798
1251.4000, -26.097
1251.5000, -26.107
1251.6000, -26.187
1251.7000, -26.278
1251.8000, -26.384
1251.9000, -26.335
1252.0000, -26.503
1252.1000, -26.528
1252.2000, -26.754
1252.3000, -26.847
1252.4000, -26.869
1252.5000, -27.040
1252.6000, -27.127
1252.7000, -27.093
1252.8000, -27.243
1252.9000, -27.429
1253.0000, -27.446
1253.1000, -27.581
1253.2000, -27.534
1253.3000, -27.735
1253.4000, -27.874
1253.5000, -27.922
1253.6000, -27.946
1253.7000, -28.092
1253.8000, -28.126
1253.9000, -28.242
1254.0000, -28.396
1254.1000, -28.374
1254.2000, -28.423
1254.3000, -28.602
1254.4000, -28.591
1254.5000, -28.764
1254.6000, -28.773
1254.7000, -28.850
1254.8000, -28.905
1254.9000, -28.960
1255.0000, -29.034
1255.1000, -29.156
1255.2000, -29.194
1255.3000, -29.188
1255.4000, -29.300
1255.5000, -29.469
1255.6000, -29.575
1255.7000, -29.432
1255.8000, -29.696
1255.9000, -29.617
1256.0000, -29.871
1256.1000, -29.862
1256.2000, -29.881
1256.3000, -29.955
1256.4000, -30.086
1256.5000, -30.040
1256.6000, -30.098
1256.7000, -30.242
1256.8000, -30.310
1256.9000, -30.355
1257.0000, -30.556
1257.1000, -30.633
1257.2000, -30.452
1257.3000, -30.617
1257.4000, -30.572
1257.5000, -30.711
1257.6000, -30.685
1257.7000, -30.847
1257.8000, -31.034
1257.9000, -30.875
1258.0000, -30.912
1258.1000, -31.068
1258.2000, -31.240
1258.3000, -31.121
1258.4000, -31.221
1258.5000, -31.321
1258.6000, -31.442
1258.7000, -31.410
1258.8000, -31.569
1258.9000, -31.725
1259.0000, -31.576
1259.1000, -31.593
1259.2000, -31.659
1259.3000, -31.719
1259.4000, -31.845
1259.5000, -31.946
1259.6000, -32.106
1259.7000, -32.005
1259.8000, -32.008
1259.9000, -32.280
1260.0000, -32.120
1260.1000, -32.404
1260.2000, -32.409
1260.3000, -32.559
1260.4000, -32.402
1260.5000, -32.533
1260.6000, -32.678
1260.7000, -32.640
1260.8000, -32.870
1260.9000, -32.949
1261.0000, -32.913
1261.1000, -32.916
1261.2000, -32.936
1261.3000, -33.058
1261.4000, -32.997
1261.5000, -33.176
1261.6000, -33.367
1261.7000, -33.235
1261.8000, -33.237
1261.9000, -33.391
1262.0000, -33.611
1262.1000, -33.500
1262.2000, -33.576
1262.3000, -33.535
1262.4000, -33.642
1262.5000, -33.957
1262.6000, -33.954
1262.7000, -34.088
1262.8000, -34.125
1262.9000, -34.195
1263.0000, -34.312
1263.1000, -34.197
1263.2000, -34.367
1263.3000, -34.485
1263.4000, -34.490
1263.5000, -34.643
1263.6000, -34.466
1263.7000, -34.638
1263.8000, -34.727
1263.9000, -34.813
1264.0000, -34.985
1264.1000, -34.980
1264.2000, -34.902
1264.3000, -35.221
1264.4000, -35.036
1264.5000, -35.415
1264.6000, -35.210
1264.7000, -35.352
1264.8000, -35.586
1264.9000, -35.559
1265.0000, -35.676
1265.1000, -35.582
1265.2000, -35.886
1265.3000, -35.864
1265.4000, -36.017
1265.5000, -35.850
1265.6000, -36.052
1265.7000, -36.274
1265.8000, -36.342
1265.9000, -36.295
1266.0000, -36.496
1266.1000, -36.356
1266.2000, -36.446
1266.3000, -36.378
1266.4000, -36.560
1266.5000, -36.722
1266.6000, -36.812
1266.7000, -36.854
1266.8000, -36.763
1266.9000, -36.934
1267.0000, -37.025
1267.1000, -37.227
1267.2000, -37.338
1267.3000, -37.417
1267.4000, -37.409
1267.5000, -37.563
1267.6000, -37.600
1267.7000, -37.545
1267.8000, -37.765
1267.9000, -37.921
1268.0000, -37.816
1268.1000, -37.769
1268.2000, -38.017
1268.3000, -38.247
1268.4000, -38.185
1268.5000, -38.217
1268.6000, -38.312
1268.7000, -38.371
1268.8000, -38.532
1268.9000, -38.396
1269.0000, -38.706
1269.1000, -38.782
1269.2000, -38.727
1269.3000, -38.647
1269.4000, -38.766
1269.5000, -38.833
1269.6000, -38.825
1269.7000, -39.134
1269.8000, -39.063
1269.9000, -38.943
1270.0000, -38.976
1270.1000, -39.002
1270.2000, -39.224
1270.3000, -39.028
1270.4000, -39.225
1270.5000, -39.527
1270.6000, -39.561
1270.7000, -39.748
1270.8000, -39.493
1270.9000, -39.526
1271.0000, -39.735
1271.1000, -40.040
1271.2000, -39.747
1271.3000, -39.899
1271.4000, -40.011
1271.5000, -40.057
1271.6000, -40.545
1271.7000, -40.418
1271.8000, -40.465
1271.9000, -40.328
1272.0000, -40.542
1272.1000, -40.913
1272.2000, -40.695
1272.3000, -40.869
1272.4000, -41.025
1272.5000, -41.170
1272.6000, -41.382
1272.7000, -41.301
1272.8000, -41.108
1272.9000, -40.888
1273.0000, -41.448
1273.1000, -41.443
1273.2000, -41.279
1273.3000, -41.289
1273.4000, -41.698
1273.5000, -41.585
1273.6000, -41.616
1273.7000, -41.472
1273.8000, -41.658
1273.9000, -41.837
1274.0000, -41.964
1274.1000, -42.058
1274.2000, -41.771
1274.3000, -41.669
1274.4000, -41.932
1274.5000, -41.959
1274.6000, -42.257
1274.7000, -42.122
1274.8000, -42.405
1274.9000, -42.328
1275.0000, -42.131
1275.1000, -42.169
1275.2000, -42.638
1275.3000, -42.746
1275.4000, -42.596
1275.5000, -42.617
1275.6000, -42.794
1275.7000, -42.895
1275.8000, -42.856
1275.9000, -42.679
1276.0000, -42.995
1276.1000, -43.070
1276.2000, -42.846
1276.3000, -43.079
1276.4000, -42.904
1276.5000, -43.188
1276.6000, -43.511
1276.7000, -43.379
1276.8000, -43.510
1276.9000, -43.794
1277.0000, -43.780
1277.1000, -43.763
1277.2000, -43.676
1277.3000, -43.628
1277.4000, -43.926
1277.5000, -43.962
1277.6000, -43.923
1277.7000, -43.869
1277.8000, -44.018
1277.9000, -44.079
1278.0000, -44.232
1278.1000, -44.115
1278.2000, -44.067
1278.3000, -44.111
1278.4000, -44.343
1278.5000, -44.364
1278.6000, -44.165
1278.7000, -44.424
1278.8000, -44.466
1278.9000, -44.398
1279.0000, -44.411
1279.1000, -44.411
1279.2000, -44.479
1279.3000, -44.522
1279.4000, -44.479
1279.5000, -44.484
1279.6000, -44.629
1279.7000, -44.641
1279.8000, -44.601
1279.9000, -44.618
1280.0000, -44.755
1280.1000, -44.547
1280.2000, -44.790
1280.3000, -44.633
1280.4000, -44.846
1280.5000, -44.783
1280.6000, -44.739
1280.7000, -44.650
1280.8000, -44.812
1280.9000, -44.812
1281.0000, -44.802
1281.1000, -44.796
1281.2000, -44.817
1281.3000, -44.720
1281.4000, -44.668
1281.5000, -44.666
1281.6000, -44.702
1281.7000, -44.812
1281.8000, -44.793
1281.9000, -44.877
1282.0000, -44.693
1282.1000, -44.791
1282.2000, -44.753
1282.3000, -44.652
1282.4000, -44.853
1282.5000, -44.851
1282.6000, -44.815
1282.7000, -44.773
1282.8000, -44.642
1282.9000, -44.704
1283.0000, -44.931
1283.1000, -44.629
1283.2000, -44.781
1283.3000, -44.679
1283.4000, -44.673
1283.5000, -44.529
1283.6000, -44.550
1283.7000, -44.526
1283.8000, -44.557
1283.9000, -44.458
1284.0000, -44.519
1284.1000, -44.407
1284.2000, -44.468
1284.3000, -44.385
1284.4000, -44.390
1284.5000, -44.378
1284.6000, -44.215
1284.7000, -44.244
1284.8000, -44.222
1284.9000, -44.345
1285.0000, -44.291
1285.1000, -44.318
1285.2000, -44.202
1285.3000, -44.027
1285.4000, -44.090
1285.5000, -44.119
1285.6000, -44.104
1285.7000, -44.018
1285.8000, -44.018
1285.9000, -43.985
1286.0000, -43.926
1286.1000, -44.020
1286.2000, -43.705
1286.3000, -43.670
1286.4000, -43.787
1286.5000, -43.761
1286.6000, -43.864
1286.7000, -43.646
1286.8000, -43.619
1286.9000, -43.522
1287.0000, -43.639
1287.1000, -43.437
1287.2000, -43.367
1287.3000, -43.472
1287.4000, -43.471
1287.5000, -43.381
1287.6000, -43.133
1287.7000, -43.083
1287.8000, -43.157
1287.9000, -43.094
1288.0000, -42.990
1288.1000, -42.936
1288.2000, -42.921
1288.3000, -42.847
1288.4000, -42.774
1288.5000, -42.696
1288.6000, -42.766
1288.7000, -42.796
1288.8000, -42.741
1288.9000, -42.722
1289.0000, -42.416
1289.1000, -42.338
1289.2000, -42.385
1289.3000, -42.386
1289.4000, -42.379
1289.5000, -42.411
1289.6000, -42.394
1289.7000, -42.384
1289.8000, -42.058
1289.9000, -41.966
1290.0000, -42.005
1290.1000, -41.829
1290.2000, -41.872
1290.3000, -41.647
1290.4000, -41.684
1290.5000, -41.672
1290.6000, -41.837
1290.7000, -41.527
1290.8000, -41.649
1290.9000, -41.623
1291.0000, -41.594
1291.1000, -41.286
1291.2000, -41.311
1291.3000, -41.260
1291.4000, -41.196
1291.5000, -41.246
1291.6000, -41.122
1291.7000, -40.970
1291.8000, -40.762
1291.9000, -40.940
1292.0000, -40.711
1292.1000, -40.711
1292.2000, -40.533
1292.3000, -40.564
1292.4000, -40.617
1292.5000, -40.493
1292.6000, -40.473
1292.7000, -40.394
1292.8000, -40.345
1292.9000, -40.207
1293.0000, -40.101
1293.1000, -40.204
1293.2000, -40.130
1293.3000, -40.114
1293.4000, -40.075
1293.5000, -39.899
1293.6000, -39.810
1293.7000, -39.689
1293.8000, -39.688
1293.9000, -39.586
1294.0000, -39.593
1294.1000, -39.324
1294.2000, -39.328
1294.3000, -39.254
1294.4000, -39.403
1294.5000, -39.345
1294.6000, -39.388
1294.7000, -39.291
1294.8000, -39.024
1294.9000, -38.968
1295.0000, -39.156
1295.1000, -39.004
1295.2000, -38.728
1295.3000, -38.566
1295.4000, -38.503
1295.5000, -38.691
1295.6000, -38.557
1295.7000, -38.478
1295.8000, -38.558
1295.9000, -38.087
1296.0000, -38.377
1296.1000, -38.105
1296.2000, -38.219
1296.3000, -37.908
1296.4000, -37.965
1296.5000, -38.162
1296.6000, -37.809
1296.7000, -37.766
1296.8000, -37.709
1296.9000, -37.397
1297.0000, -37.678
1297.1000, -37.434
1297.2000, -37.559
1297.3000, -37.356
1297.4000, -36.968
1297.5000, -37.329
1297.6000, -37.178
1297.7000, -37.067
1297.8000, -37.062
1297.9000, -37.111
1298.0000, -36.855
1298.1000, -36.931
1298.2000, -36.941
1298.3000, -36.695
1298.4000, -36.623
1298.5000, -36.536
1298.6000, -36.432
1298.7000, -36.529
1298.8000, -36.370
1298.9000, -36.239
1299.0000, -36.394
1299.1000, -36.213
1299.2000, -36.334
1299.3000, -36.263
1299.4000, -35.814
1299.5000, -36.064
1299.6000, -36.030
1299.7000, -35.608
1299.8000, -36.027
1299.9000, -35.885
1300.0000, -35.707
1300.1000, -35.604
1300.2000, -35.822
1300.3000, -35.648
1300.4000, -35.427
1300.5000, -35.713
1300.6000, -35.260
1300.7000, -35.342
1300.8000, -35.211
1300.9000, -34.919
1301.0000, -35.179
1301.1000, -35.060
1301.2000, -34.815
1301.3000, -35.063
1301.4000, -34.856
1301.5000, -34.858
1301.6000, -34.458
1301.7000, -34.629
1301.8000, -34.619
1301.9000, -34.601
1302.0000, -34.417
1302.1000, -34.187
1302.2000, -34.174
1302.3000, -34.084
1302.4000, -34.290
1302.5000, -34.259
1302.6000, -34.316
1302.7000, -33.847
1302.8000, -33.460
1302.9000, -33.765
1303.0000, -33.340
1303.1000, -33.466
1303.2000, -34.227
1303.3000, -33.933
1303.4000, -33.360
1303.5000, -33.616
1303.6000, -33.916
1303.7000, -33.904
1303.8000, -33.621
1303.9000, -33.663
1304.0000, -33.316
1304.1000, -33.310
1304.2000, -33.366
1304.3000, -33.624
1304.4000, -33.271
1304.5000, -33.286
1304.6000, -33.478
1304.7000, -33.205
1304.8000, -33.256
1304.9000, -33.004
1305.0000, -33.163
1305.1000, -32.869
1305.2000, -32.709
1305.3000, -32.896
1305.4000, -32.862
1305.5000, -33.131
1305.6000, -32.942
1305.7000, -32.719
1305.8000, -32.638
1305.9000, -32.572
1306.0000, -32.601
1306.1000, -32.492
1306.2000, -32.631
1306.3000, -32.785
1306.4000, -32.262
1306.5000, -32.299
1306.6000, -32.324
1306.7000, -32.245
1306.8000, -32.384
1306.9000, -32.408
1307.0000, -32.159
1307.1000, -32.367
1307.2000, -32.038
1307.3000, -32.275
1307.4000, -32.429
1307.5000, -32.123
1307.6000, -32.168
1307.7000, -32.392
1307.8000, -32.105
1307.9000, -32.181
1308.0000, -32.316
1308.1000, -32.443
1308.2000, -32.348
1308.3000, -32.240
1308.4000, -32.506
1308.5000, -32.327
1308.6000, -32.027
1308.7000, -32.105
1308.8000, -32.138
1308.9000, -32.296
1309.0000, -32.298
1309.1000, -32.247
1309.2000, -32.191
1309.3000, -32.232
1309.4000, -32.482
1309.5000, -32.382
1309.6000, -32.256
1309.7000, -32.272
1309.8000, -32.557
1309.9000, -32.643
1310.0000, -32.315
1310.1000, -32.603
1310.2000, -32.470
1310.3000, -32.536
1310.4000, -32.694
1310.5000, -32.510
1310.6000, -32.580
1310.7000, -32.992
1310.8000, -32.611
1310.9000, -32.973
1311.0000, -32.725
1311.1000, -32.564
1311.2000, -32.722
1311.3000, -32.735
1311.4000, -33.112
1311.5000, -33.087
1311.6000, -33.077
1311.7000, -33.073
1311.8000, -32.956
1311.9000, -33.286
1312.0000, -33.256
1312.1000, -33.365
1312.2000, -33.218
1312.3000, -33.522
1312.4000, -33.510
1312.5000, -33.542
1312.6000, -33.658
1312.7000, -33.578
1312.8000, -33.567
1312.9000, -33.681
1313.0000, -33.826
1313.1000, -33.828
1313.2000, -33.751
1313.3000, -33.809
1313.4000, -33.939
1313.5000, -33.979
1313.6000, -34.387
1313.7000, -34.335
1313.8000, -34.342
1313.9000, -34.207
1314.0000, -34.260
1314.1000, -34.580
1314.2000, -34.389
1314.3000, -34.473
1314.4000, -34.607
1314.5000, -34.589
1314.6000, -34.543
1314.7000, -34.602
1314.8000, -35.052
1314.9000, -34.954
1315.0000, -34.848
1315.1000, -34.903
1315.2000, -34.992
1315.3000, -35.389
1315.4000, -35.264
1315.5000, -35.336
1315.6000, -35.266
1315.7000, -35.368
1315.8000, -35.417
1315.9000, -35.430
1316.0000, -35.720
1316.1000, -35.407
1316.2000, -35.512
1316.3000, -35.777
1316.4000, -35.740
1316.5000, -36.018
1316.6000, -35.783
1316.7000, -36.231
1316.8000, -36.031
1316.9000, -36.086
1317.0000, -36.113
1317.1000, -36.211
1317.2000, -36.350
1317.3000, -36.432
1317.4000, -36.352
1317.5000, -36.479
1317.6000, -36.636
1317.7000, -36.573
1317.8000, -36.790
1317.9000, -36.700
1318.0000, -36.681
1318.1000, -36.932
1318.2000, -36.847
1318.3000, -36.975
1318.4000, -37.135
1318.5000, -36.926
1318.6000, -37.143
1318.7000, -37.182
1318.8000, -37.416
1318.9000, -37.613
1319.0000, -37.241
1319.1000, -37.511
1319.2000, -37.758
1319.3000, -37.587
1319.4000, -38.027
1319.5000, -37.647
1319.6000, -37.770
1319.7000, -38.030
1319.8000, -38.055
1319.9000, -38.164
1320.0000, -38.145
1320.1000, -38.255
1320.2000, -38.348
1320.3000, -38.227
1320.4000, -38.318
1320.5000, -38.490
1320.6000, -38.488
1320.7000, -38.449
1320.8000, -38.523
1320.9000, -38.790
1321.0000, -38.751
1321.1000, -38.633
1321.2000, -39.057
1321.3000, -38.907
1321.4000, -39.014
1321.5000, -39.106
1321.6000, -39.199
1321.7000, -38.919
1321.8000, -39.129
1321.9000, -39.102
1322.0000, -39.358
1322.1000, -39.335
1322.2000, -39.381
1322.3000, -39.448
1322.4000, -39.700
1322.5000, -39.446
1322.6000, -39.775
1322.7000, -39.787
1322.8000, -39.818
1322.9000, -39.830
1323.0000, -39.889
1323.1000, -39.888
1323.2000, -40.003
1323.3000, -40.037
1323.4000, -40.070
1323.5000, -40.105
1323.6000, -40.168
1323.7000, -40.356
1323.8000, -40.229
1323.9000, -40.142
1324.0000, -40.186
1324.1000, -40.554
1324.2000, -40.487
1324.3000, -40.472
1324.4000, -40.658
1324.5000, -40.789
1324.6000, -40.737
1324.7000, -40.727
1324.8000, -40.748
1324.9000, -40.558
1325.0000, -40.670
1325.1000, -40.720
1325.2000, -40.587
1325.3000, -40.595
1325.4000, -40.602
1325.5000, -40.798
1325.6000, -40.939
1325.7000, -40.665
1325.8000, -40.903
1325.9000, -40.818
1326.0000, -40.971
1326.1000, -40.881
1326.2000, -40.897
1326.3000, -40.954
1326.4000, -41.030
1326.5000, -40.810
1326.6000, -40.839
1326.7000, -41.025
1326.8000, -41.051
1326.9000, -41.217
1327.0000, -41.201
1327.1000, -41.111
1327.2000, -41.121
1327.3000, -41.215
1327.4000, -41.134
1327.5000, -41.162
1327.6000, -41.119
1327.7000, -41.112
1327.8000, -41.263
1327.9000, -41.229
1328.0000, -41.233
1328.1000, -41.354
1328.2000, -41.308
1328.3000, -41.361
1328.4000, -41.185
1328.5000, -41.352
1328.6000, -41.214
1328.7000, -41.252
1328.8000, -41.357
1328.9000, -41.372
1329.0000, -41.015
1329.1000, -41.302
1329.2000, -41.166
1329.3000, -41.262
1329.4000, -41.210
1329.5000, -41.517
1329.6000, -41.140
1329.7000, -41.280
1329.8000, -41.144
1329.9000, -41.328
1330.0000, -41.322
1330.1000, -41.080
1330.2000, -41.142
1330.3000, -41.256
1330.4000, -41.319
1330.5000, -41.184
1330.6000, -41.263
1330.7000, -41.355
1330.8000, -41.145
1330.9000, -41.290
1331.0000, -41.448
1331.1000, -41.093
1331.2000, -41.003
1331.3000, -41.295
1331.4000, -41.195
1331.5000, -41.100
1331.6000, -41.133
1331.7000, -41.087
1331.8000, -41.169
1331.9000, -41.092
1332.0000, -41.110
1332.1000, -41.009
1332.2000, -41.279
1332.3000, -41.039
1332.4000, -40.951
1332.5000, -40.876
1332.6000, -40.868
1332.7000, -41.041
1332.8000, -40.889
1332.9000, -40.943
1333.0000, -40.679
1333.1000, -40.745
1333.2000, -40.740
1333.3000, -40.939
1333.4000, -40.923
1333.5000, -40.823
1333.6000, -40.785
1333.7000, -40.784
1333.8000, -40.685
1333.9000, -40.725
1334.0000, -40.759
1334.1000, -40.547
1334.2000, -40.582
1334.3000, -40.328
1334.4000, -40.624
1334.5000, -40.559
1334.6000, -40.606
1334.7000, -40.604
1334.8000, -40.502
1334.9000, -40.470
1335.0000, -40.655
1335.1000, -40.293
1335.2000, -40.467
1335.3000, -40.327
1335.4000, -40.314
1335.5000, -40.335
1335.6000, -40.224
1335.7000, -40.108
1335.8000, -40.273
1335.9000, -40.138
1336.0000, -40.286
1336.1000, -40.229
1336.2000, -39.968
1336.3000, -39.990
1336.4000, -40.081
1336.5000, -39.891
1336.6000, -40.119
1336.7000, -39.888
1336.8000, -39.934
1336.9000, -39.821
1337.0000, -39.981
1337.1000, -39.807
1337.2000, -39.587
1337.3000, -39.733
1337.4000, -39.877
1337.5000, -39.896
1337.6000, -39.639
1337.7000, -39.720
1337.8000, -39.607
1337.9000, -39.611
1338.0000, -39.673
1338.1000, -39.773
1338.2000, -39.498
1338.3000, -39.443
1338.4000, -39.413
1338.5000, -39.485
1338.6000, -39.464
1338.7000, -39.359
1338.8000, -39.445
1338.9000, -39.509
1339.0000, -39.222
1339.1000, -39.257
1339.2000, -39.086
1339.3000, -39.046
1339.4000, -39.135
1339.5000, -39.028
1339.6000, -39.121
1339.7000, -39.305
1339.8000, -39.076
1339.9000, -39.036
1340.0000, -38.922
1340.1000, -39.016
1340.2000, -38.934
1340.3000, -38.713
1340.4000, -38.802
1340.5000, -39.044
1340.6000, -38.783
1340.7000, -38.828
1340.8000, -38.762
1340.9000, -38.859
1341.0000, -38.636
1341.1000, -38.688
1341.2000, -38.508
1341.3000, -38.511
1341.4000, -38.437
1341.5000, -38.815
1341.6000, -38.483
1341.7000, -38.494
1341.8000, -38.637
1341.9000, -38.410
1342.0000, -38.487
1342.1000, -38.468
1342.2000, -38.292
1342.3000, -38.282
1342.4000, -38.359
1342.5000, -38.700
1342.6000, -38.307
1342.7000, -38.179
1342.8000, -38.142
1342.9000, -38.197
1343.0000, -38.123
1343.1000, -38.270
1343.2000, -38.198
1343.3000, -38.228
1343.4000, -38.304
1343.5000, -38.137
1343.6000, -38.255
1343.7000, -38.154
1343.8000, -38.101
1343.9000, -37.997
1344.0000, -38.054
1344.1000, -38.005
1344.2000, -38.041
1344.3000, -37.849
1344.4000, -38.097
1344.5000, -38.026
1344.6000, -37.968
1344.7000, -37.988
1344.8000, -37.936
1344.9000, -38.297
1345.0000, -38.021
1345.1000, -38.044
1345.2000, -38.027
1345.3000, -37.820
1345.4000, -38.011
1345.5000, -37.854
1345.6000, -37.978
1345.7000, -37.822
1345.8000, -37.660
1345.9000, -37.850
1346.0000, -37.759
1346.1000, -37.811
1346.2000, -37.689
1346.3000, -37.620
1346.4000, -37.921
1346.5000, -37.759
1346.6000, -37.801
1346.7000, -37.534
1346.8000, -37.657
1346.9000, -37.747
1347.0000, -37.626
1347.1000, -37.642
1347.2000, -37.753
1347.3000, -37.654
1347.4000, -37.398
1347.5000, -37.829
1347.6000, -37.535
1347.7000, -37.595
1347.8000, -37.678
1347.9000, -37.704
1348.0000, -37.776
1348.1000, -37.658
1348.2000, -37.621
1348.3000, -37.566
1348.4000, -37.427
1348.5000, -37.718
1348.6000, -37.847
1348.7000, -37.692
1348.8000, -37.506
1348.9000, -37.418
1349.0000, -37.655
1349.1000, -37.634
1349.2000, -37.619
1349.3000, -37.477
1349.4000, -37.451
1349.5000, -37.563
1349.6000, -37.539
1349.7000, -37.452
1349.8000, -37.570
1349.9000, -37.494
1350.0000, -37.544
1350.1000, -37.538
1350.2000, -37.437
1350.3000, -37.772
1350.4000, -37.557
1350.5000, -37.543
1350.6000, -37.671
1350.7000, -37.625
1350.8000, -37.404
1350.9000, -37.682
1351.0000, -37.449
1351.1000, -37.458
1351.2000, -37.516
1351.3000, -37.543
1351.4000, -37.518
1351.5000, -37.531
1351.6000, -37.652
1351.7000, -37.687
1351.8000, -37.651
1351.9000, -37.586
1352.0000, -37.544
1352.1000, -37.566
1352.2000, -37.447
1352.3000, -37.533
1352.4000, -37.826
1352.5000, -37.758
1352.6000, -37.574
1352.7000, -37.539
1352.8000, -37.711
1352.9000, -37.633
1353.0000, -37.575
1353.1000, -37.750
1353.2000, -37.715
1353.3000, -37.456
1353.4000, -37.910
1353.5000, -37.824
1353.6000, -37.425
1353.7000, -37.609
1353.8000, -37.745
1353.9000, -37.372
1354.0000, -37.461
1354.1000, -37.443
1354.2000, -37.620
1354.3000, -37.516
1354.4000, -37.550
1354.5000, -37.946
1354.6000, -37.905
1354.7000, -37.859
1354.8000, -38.016
1354.9000, -37.846
1355.0000, -37.841
1355.1000, -37.793
1355.2000, -37.792
1355.3000, -37.574
1355.4000, -37.532
1355.5000, -37.739
1355.6000, -37.847
1355.7000, -38.082
1355.8000, -38.114
1355.9000, -38.109
1356.0000, -38.205
1356.1000, -38.035
1356.2000, -37.631
1356.3000, -37.662
1356.4000, -37.884
1356.5000, -37.507
1356.6000, -37.604
1356.7000, -37.754
1356.8000, -37.686
1356.9000, -37.849
1357.0000, -38.055
1357.1000, -38.197
1357.2000, -37.998
1357.3000, -37.969
1357.4000, -37.770
1357.5000, -37.882
1357.6000, -37.955
1357.7000, -37.797
1357.8000, -37.799
1357.9000, -37.950
1358.0000, -37.823
1358.1000, -37.638
1358.2000, -37.868
1358.3000, -37.871
1358.4000, -37.929
1358.5000, -37.989
1358.6000, -37.969
1358.7000, -37.859
1358.8000, -37.694
1358.9000, -37.940
1359.0000, -37.961
1359.1000, -37.723
1359.2000, -37.788
1359.3000, -38.137
1359.4000, -38.016
1359.5000, -38.363
1359.6000, -38.366
1359.7000, -38.324
1359.8000, -37.864
1359.9000, -37.891
1360.0000, -37.901
1360.1000, -38.017
1360.2000, -37.953
1360.3000, -37.919
1360.4000, -37.856
1360.5000, -37.759
1360.6000, -38.024
1360.7000, -38.106
1360.8000, -38.278
1360.9000, -38.137
1361.0000, -38.511
1361.1000, -38.018
1361.2000, -38.154
1361.3000, -37.967
1361.4000, -37.804
1361.5000, -38.210
1361.6000, -38.178
1361.7000, -38.150
1361.8000, -38.477
1361.9000, -38.223
1362.0000, -38.216
1362.1000, -38.075
1362.2000, -38.443
1362.3000, -38.607
1362.4000, -38.588
1362.5000, -38.578
1362.6000, -38.441
1362.7000, -38.080
1362.8000, -37.991
1362.9000, -38.034
1363.0000, -37.860
1363.1000, -37.867
1363.2000, -38.010
1363.3000, -37.575
1363.4000, -37.865
1363.5000, -38.008
1363.6000, -37.880
1363.7000, -37.784
1363.8000, -37.720
1363.9000, -37.785
1364.0000, -37.739
1364.1000, -37.764
1364.2000, -37.604
1364.3000, -38.102
1364.4000, -37.999
1364.5000, -38.380
1364.6000, -38.326
1364.7000, -38.361
1364.8000, -38.544
1364.9000, -38.300
1365.0000, -37.944
1365.1000, -37.731
1365.2000, -37.857
1365.3000, -37.910
1365.4000, -38.122
1365.5000, -37.914
1365.6000, -38.048
1365.7000, -37.897
1365.8000, -37.892
1365.9000, -37.449
1366.0000, -37.711
1366.1000, -37.533
1366.2000, -37.395
1366.3000, -37.491
1366.4000, -37.583
1366.5000, -37.464
1366.6000, -37.544
1366.7000, -37.587
1366.8000, -37.742
1366.9000, -37.616
1367.0000, -37.528
1367.1000, -37.566
1367.2000, -37.425
1367.3000, -37.488
1367.4000, -37.651
1367.5000, -37.280
1367.6000, -37.737
1367.7000, -37.973
1367.8000, -37.907
1367.9000, -37.566
1368.0000, -37.599
1368.1000, -37.643
1368.2000, -37.256
1368.3000, -37.237
1368.4000, -37.850
1368.5000, -37.697
1368.6000, -37.769
1368.7000, -37.873
1368.8000, -37.733
1368.9000, -37.331
1369.0000, -37.130
1369.1000, -37.051
1369.2000, -36.988
1369.3000, -37.274
1369.4000, -37.043
1369.5000, -37.230
1369.6000, -36.867
1369.7000, -36.933
1369.8000, -37.192
1369.9000, -37.180
1370.0000, -37.333
1370.1000, -37.411
1370.2000, -37.280
1370.3000, -37.035
1370.4000, -36.925
1370.5000, -36.856
1370.6000, -36.964
1370.7000, -37.106
1370.8000, -37.416
1370.9000, -37.229
1371.0000, -37.291
1371.1000, -37.276
1371.2000, -37.112
1371.3000, -36.713
1371.4000, -36.711
1371.5000, -36.907
1371.6000, -36.781
1371.7000, -36.750
1371.8000, -36.810
1371.9000, -36.947
1372.0000, -36.811
1372.1000, -36.731
1372.2000, -36.688
1372.3000, -36.712
1372.4000, -36.745
1372.5000, -36.438
1372.6000, -36.321
1372.7000, -36.379
1372.8000, -36.416
1372.9000, -36.342
1373.0000, -36.442
1373.1000, -36.438
1373.2000, -36.478
1373.3000, -36.581
1373.4000, -36.324
1373.5000, -36.362
1373.6000, -36.288
1373.7000, -36.368
1373.8000, -36.177
1373.9000, -36.115
1374.0000, -36.227
1374.1000, -36.120
1374.2000, -36.149
1374.3000, -36.241
1374.4000, -36.145
1374.5000, -36.019
1374.6000, -36.164
1374.7000, -36.192
1374.8000, -36.008
1374.9000, -36.179
1375.0000, -35.929
1375.1000, -36.033
1375.2000, -36.138
1375.3000, -35.899
1375.4000, -35.841
1375.5000, -35.752
1375.6000, -35.777
1375.7000, -35.806
1375.8000, -35.814
1375.9000, -35.567
1376.0000, -35.724
1376.1000, -35.653
1376.2000, -35.759
1376.3000, -35.753
1376.4000, -35.635
1376.5000, -35.612
1376.6000, -35.515
1376.7000, -35.742
1376.8000, -35.808
1376.9000, -35.635
1377.0000, -35.834
1377.1000, -35.901
1377.2000, -35.673
1377.3000, -35.555
1377.4000, -35.503
1377.5000, -35.129
1377.6000, -35.212
1377.7000, -35.254
1377.8000, -35.299
1377.9000, -35.074
1378.0000, -35.015
1378.1000, -35.105
1378.2000, -35.018
1378.3000, -35.259
1378.4000, -35.329
1378.5000, -35.222
1378.6000, -35.430
1378.7000, -35.549
1378.8000, -35.392
1378.9000, -35.413
1379.0000, -35.155
1379.1000, -35.048
1379.2000, -34.991
1379.3000, -34.924
1379.4000, -35.073
1379.5000, -34.865
1379.6000, -34.879
1379.7000, -34.888
1379.8000, -34.912
1379.9000, -34.921
1380.0000, -34.804
1380.1000, -34.911
1380.2000, -34.825
1380.3000, -34.788
1380.4000, -35.060
1380.5000, -35.313
1380.6000, -35.867
1380.7000, -35.704
1380.8000, -35.626
1380.9000, -35.317
1381.0000, -35.184
1381.1000, -34.815
1381.2000, -34.805
1381.3000, -34.757
1381.4000, -34.475
1381.5000, -34.477
1381.6000, -34.552
1381.7000, -34.394
1381.8000, -34.327
1381.9000, -34.407
1382.0000, -34.230
1382.1000, -34.423
1382.2000, -34.328
1382.3000, -34.264
1382.4000, -34.648
1382.5000, -35.003
1382.6000, -35.173
1382.7000, -35.118
1382.8000, -35.099
1382.9000, -35.024
1383.0000, -34.743
1383.1000, -34.511
1383.2000, -34.224
1383.3000, -34.016
1383.4000, -34.188
1383.5000, -33.944
1383.6000, -33.991
1383.7000, -34.038
1383.8000, -33.994
1383.9000, -33.885
1384.0000, -34.170
1384.1000, -34.087
1384.2000, -33.611
1384.3000, -33.578
1384.4000, -33.907
1384.5000, -33.645
1384.6000, -33.601
1384.7000, -33.647
1384.8000, -33.646
1384.9000, -33.611
1385.0000, -33.949
1385.1000, -33.887
1385.2000, -33.791
1385.3000, -33.782
1385.4000, -33.437
1385.5000, -33.273
1385.6000, -33.403
1385.7000, -33.337
1385.8000, -33.375
1385.9000, -33.369
1386.0000, -33.290
1386.1000, -33.293
1386.2000, -33.412
1386.3000, -33.099
1386.4000, -33.143
1386.5000, -33.201
1386.6000, -33.164
1386.7000, -33.009
1386.8000, -33.088
1386.9000, -32.969
1387.0000, -32.794
1387.1000, -32.807
1387.2000, -32.810
1387.3000, -32.759
1387.4000, -32.883
1387.5000, -32.580
1387.6000, -32.777
1387.7000, -32.961
1387.8000, -32.960
1387.9000, -32.921
1388.0000, -33.099
1388.1000, -32.855
1388.2000, -32.907
1388.3000, -32.925
1388.4000, -32.658
1388.5000, -32.946
1388.6000, -32.724
1388.7000, -32.638
1388.8000, -32.255
1388.9000, -32.387
1389.0000, -32.329
1389.1000, -32.344
1389.2000, -32.372
1389.3000, -32.184
1389.4000, -32.434
1389.5000, -32.281
1389.6000, -32.234
1389.7000, -32.244
1389.8000, -32.472
1389.9000, -32.347
1390.0000, -32.337
1390.1000, -32.358
1390.2000, -32.119
1390.3000, -32.112
1390.4000, -32.021
1390.5000, -32.371
1390.6000, -32.118
1390.7000, -31.926
1390.8000, -32.128
1390.9000, -31.976
1391.0000, -32.134
1391.1000, -32.043
1391.2000, -32.093
1391.3000, -31.912
1391.4000, -31.868
1391.5000, -31.988
1391.6000, -31.884
1391.7000, -31.877
1391.8000, -31.859
1391.9000, -31.699
1392.0000, -31.962
1392.1000, -31.805
1392.2000, -32.022
1392.3000, -32.295
1392.4000, -32.534
1392.5000, -32.382
1392.6000, -32.222
1392.7000, -32.245
1392.8000, -32.097
1392.9000, -31.866
1393.0000, -31.744
1393.1000, -31.738
1393.2000, -31.487
1393.3000, -31.702
1393.4000, -31.520
1393.5000, -31.642
1393.6000, -31.564
1393.7000, -31.792
1393.8000, -31.787
1393.9000, -31.661
1394.0000, -31.528
1394.1000, -31.811
1394.2000, -31.528
1394.3000, -31.567
1394.4000, -31.582
1394.5000, -31.698
1394.6000, -31.449
1394.7000, -31.594
1394.8000, -31.914
1394.9000, -32.053
1395.0000, -31.926
1395.1000, -32.059
1395.2000, -31.982
1395.3000, -31.924
1395.4000, -31.708
1395.5000, -31.792
1395.6000, -31.698
1395.7000, -31.654
1395.8000, -31.797
1395.9000, -31.578
1396.0000, -31.339
1396.1000, -31.509
1396.2000, -31.689
1396.3000, -31.759
1396.4000, -32.166
1396.5000, -32.044
1396.6000, -32.111
1396.7000, -31.890
1396.8000, -31.648
1396.9000, -31.670
1397.0000, -31.573
1397.1000, -31.454
1397.2000, -31.600
1397.3000, -31.414
1397.4000, -31.377
1397.5000, -31.619
1397.6000, -31.578
1397.7000, -31.506
1397.8000, -31.500
1397.9000, -31.423
1398.0000, -31.643
1398.1000, -31.583
1398.2000, -31.284
1398.3000, -31.635
1398.4000, -31.441
1398.5000, -31.535
1398.6000, -31.648
1398.7000, -31.655
1398.8000, -31.400
1398.9000, -31.557
1399.0000, -31.445
1399.1000, -31.661
1399.2000, -31.674
1399.3000, -31.626
1399.4000, -32.019
1399.5000, -32.087
1399.6000, -32.070
1399.7000, -32.015
1399.8000, -31.873
1399.9000, -31.887
1400.0000, -31.624
1400.1000, -31.770
1400.2000, -31.747
1400.3000, -31.873
1400.4000, -31.926
1400.5000, -32.063
1400.6000, -32.070
1400.7000, -32.211
1400.8000, -32.291
1400.9000, -32.180
1401.0000, -31.920
1401.1000, -31.894
1401.2000, -32.002
1401.3000, -32.082
1401.4000, -32.136
1401.5000, -31.973
1401.6000, -32.191
1401.7000, -32.229
1401.8000, -31.930
1401.9000, -32.033
1402.0000, -32.075
1402.1000, -32.143
1402.2000, -31.844
1402.3000, -31.804
1402.4000, -31.819
1402.5000, -31.990
1402.6000, -31.987
1402.7000, -32.010
1402.8000, -32.332
1402.9000, -32.301
1403.0000, -32.186
1403.1000, -32.150
1403.2000, -32.286
1403.3000, -32.277
1403.4000, -32.225
1403.5000, -32.268
1403.6000, -32.242
1403.7000, -32.282
1403.8000, -32.138
1403.9000, -32.383
1404.0000, -32.494
1404.1000, -32.366
1404.2000, -32.522
1404.3000, -32.724
1404.4000, -32.529
1404.5000, -32.712
1404.6000, -32.533
1404.7000, -32.921
1404.8000, -33.044
1404.9000, -33.342
1405.0000, -33.493
1405.1000, -33.643
1405.2000, -33.497
1405.3000, -32.987
1405.4000, -33.037
1405.5000, -32.847
1405.6000, -33.115
1405.7000, -33.251
1405.8000, -33.025
1405.9000, -33.191
1406.0000, -32.925
1406.1000, -33.200
1406.2000, -32.854
1406.3000, -33.389
1406.4000, -33.380
1406.5000, -33.318
1406.6000, -33.291
1406.7000, -33.510
1406.8000, -33.565
1406.9000, -33.764
1407.0000, -33.764
1407.1000, -33.832
1407.2000, -33.941
1407.3000, -34.055
1407.4000, -33.981
1407.5000, -34.027
1407.6000, -33.863
1407.7000, -34.128
1407.8000, -33.847
1407.9000, -33.775
1408.0000, -33.997
1408.1000, -33.970
1408.2000, -34.070
1408.3000, -34.017
1408.4000, -34.147
1408.5000, -34.130
1408.6000, -34.308
1408.7000, -34.422
1408.8000, -34.400
1408.9000, -34.069
1409.0000, -34.340
1409.1000, -34.505
1409.2000, -34.728
1409.3000, -34.764
1409.4000, -34.978
1409.5000, -35.002
1409.6000, -34.634
1409.7000, -34.928
1409.8000, -34.852
1409.9000, -34.783
1410.0000, -34.810
1410.1000, -34.904
1410.2000, -34.737
1410.3000, -34.957
1410.4000, -34.838
1410.5000, -34.995
1410.6000, -34.958
1410.7000, -34.885
1410.8000, -35.122
1410.9000, -35.240
1411.0000, -35.227
1411.1000, -35.361
1411.2000, -35.150
1411.3000, -35.628
1411.4000, -35.199
1411.5000, -35.314
1411.6000, -35.407
1411.7000, -35.648
1411.8000, -35.187
1411.9000, -35.484
1412.0000, -35.487
1412.1000, -35.370
1412.2000, -35.719
1412.3000, -35.772
1412.4000, -35.398
1412.5000, -35.712
1412.6000, -35.583
1412.7000, -35.508
1412.8000, -35.855
1412.9000, -35.764
1413.0000, -35.587
1413.1000, -36.067
1413.2000, -35.699
1413.3000, -35.803
1413.4000, -36.022
1413.5000, -35.856
1413.6000, -36.149
1413.7000, -36.041
1413.8000, -35.944
1413.9000, -35.910
1414.0000, -36.135
1414.1000, -36.383
1414.2000, -36.700
1414.3000, -36.426
1414.4000, -36.300
1414.5000, -36.385
1414.6000, -36.185
1414.7000, -36.455
1414.8000, -36.569
1414.9000, -36.267
1415.0000, -36.409
1415.1000, -36.211
1415.2000, -36.276
1415.3000, -36.391
1415.4000, -36.248
1415.5000, -36.516
1415.6000, -36.342
1415.7000, -36.193
1415.8000, -36.256
1415.9000, -36.424
1416.0000, -36.223
1416.1000, -36.642
1416.2000, -36.531
1416.3000, -36.295
1416.4000, -36.346
1416.5000, -36.565
1416.6000, -36.491
1416.7000, -36.402
1416.8000, -36.712
1416.9000, -36.724
1417.0000, -36.631
1417.1000, -36.573
1417.2000, -36.641
1417.3000, -36.822
1417.4000, -36.470
1417.5000, -36.607
1417.6000, -36.949
1417.7000, -36.891
1417.8000, -36.854
1417.9000, -36.982
1418.0000, -36.794
1418.1000, -36.714
1418.2000, -36.622
1418.3000, -36.787
1418.4000, -36.652
1418.5000, -36.771
1418.6000, -36.683
1418.7000, -37.031
1418.8000, -36.745
1418.9000, -37.153
1419.0000, -37.086
1419.1000, -36.908
1419.2000, -36.632
1419.3000, -36.921
1419.4000, -37.009
1419.5000, -37.130
1419.6000, -36.946
1419.7000, -36.911
1419.8000, -37.494
1419.9000, -36.835
1420.0000, -37.022
1420.1000, -37.036
1420.2000, -36.920
1420.3000, -37.055
1420.4000, -37.000
1420.5000, -37.119
1420.6000, -37.062
1420.7000, -37.168
1420.8000, -37.087
1420.9000, -37.078
1421.0000, -37.164
1421.1000, -36.953
1421.2000, -37.025
1421.3000, -37.062
1421.4000, -36.999
1421.5000, -37.291
1421.6000, -37.178
1421.7000, -37.189
1421.8000, -37.435
1421.9000, -37.110
1422.0000, -37.093
1422.1000, -37.291
1422.2000, -37.321
1422.3000, -37.118
1422.4000, -37.020
1422.5000, -37.150
1422.6000, -37.212
1422.7000, -37.416
1422.8000, -37.253
1422.9000, -37.080
1423.0000, -37.313
1423.1000, -37.435
1423.2000, -37.484
1423.3000, -37.296
1423.4000, -37.502
1423.5000, -37.514
1423.6000, -37.377
1423.7000, -37.510
1423.8000, -37.437
1423.9000, -37.670
1424.0000, -37.572
1424.1000, -37.618
1424.2000, -37.619
1424.3000, -37.608
1424.4000, -37.655
1424.5000, -37.468
1424.6000, -37.293
1424.7000, -37.741
1424.8000, -37.795
1424.9000, -37.656
1425.0000, -37.471
1425.1000, -37.671
1425.2000, -37.564
1425.3000, -37.463
1425.4000, -37.714
1425.5000, -37.398
1425.6000, -37.648
1425.7000, -37.254
1425.8000, -37.608
1425.9000, -37.405
1426.0000, -37.567
1426.1000, -37.597
1426.2000, -37.791
1426.3000, -37.503
1426.4000, -37.649
1426.5000, -37.489
1426.6000, -37.608
1426.7000, -37.666
1426.8000, -37.803
1426.9000, -37.754
1427.0000, -37.873
1427.1000, -37.634
1427.2000, -37.711
1427.3000, -37.835
1427.4000, -37.638
1427.5000, -37.533
1427.6000, -38.115
1427.7000, -37.737
1427.8000, -37.784
1427.9000, -37.892
1428.0000, -37.708
1428.1000, -37.858
1428.2000, -37.981
1428.3000, -38.013
1428.4000, -38.105
1428.5000, -37.946
1428.6000, -37.839
1428.7000, -37.859
1428.8000, -37.966
1428.9000, -38.059
1429.0000, -38.036
1429.1000, -37.851
1429.2000, -37.593
1429.3000, -37.832
1429.4000, -37.899
1429.5000, -37.929
1429.6000, -37.835
1429.7000, -37.827
1429.8000, -38.038
1429.9000, -37.918
1430.0000, -38.050
1430.1000, -38.178
1430.2000, -38.162
1430.3000, -37.970
1430.4000, -38.153
1430.5000, -38.081
1430.6000, -38.325
1430.7000, -38.251
1430.8000, -38.131
1430.9000, -37.854
1431.0000, -38.274
1431.1000, -37.794
1431.2000, -38.264
1431.3000, -38.489
1431.4000, -38.348
1431.5000, -38.183
1431.6000, -38.076
1431.7000, -38.383
1431.8000, -38.217
1431.9000, -38.160
1432.0000, -38.294
1432.1000, -38.252
1432.2000, -38.362
1432.3000, -38.250
1432.4000, -38.351
1432.5000, -38.380
1432.6000, -38.356
1432.7000, -38.280
1432.8000, -38.045
1432.9000, -38.347
1433.0000, -38.351
1433.1000, -38.221
1433.2000, -38.407
1433.3000, -38.028
1433.4000, -38.284
1433.5000, -38.480
1433.6000, -38.156
1433.7000, -38.567
1433.8000, -38.432
1433.9000, -38.521
1434.0000, -38.481
1434.1000, -38.412
1434.2000, -38.259
1434.3000, -38.719
1434.4000, -38.459
1434.5000, -38.499
1434.6000, -38.621
1434.7000, -38.416
1434.8000, -38.465
1434.9000, -38.618
1435.0000, -38.459
1435.1000, -38.608
1435.2000, -38.664
1435.3000, -38.613
1435.4000, -38.612
1435.5000, -38.837
1435.6000, -38.395
1435.7000, -38.356
1435.8000, -38.446
1435.9000, -38.387
1436.0000, -38.413
1436.1000, -38.573
1436.2000, -38.797
1436.3000, -38.389
1436.4000, -38.643
1436.5000, -38.463
1436.6000, -38.605
1436.7000, -38.486
1436.8000, -38.577
1436.9000, -38.486
1437.0000, -38.513
1437.1000, -38.627
1437.2000, -38.703
1437.3000, -38.897
1437.4000, -38.731
1437.5000, -38.832
1437.6000, -38.778
1437.7000, -38.671
1437.8000, -38.574
1437.9000, -38.706
1438.0000, -38.852
1438.1000, -38.734
1438.2000, -38.679
1438.3000, -38.582
1438.4000, -38.895
1438.5000, -38.497
1438.6000, -38.675
1438.7000, -38.799
1438.8000, -38.901
1438.9000, -38.663
1439.0000, -38.831
1439.1000, -38.985
1439.2000, -38.842
1439.3000, -39.101
1439.4000, -39.031
1439.5000, -39.046
1439.6000, -39.010
1439.7000, -38.945
1439.8000, -39.182
1439.9000, -38.885
1440.0000, -39.035
1440.1000, -39.033
1440.2000, -38.804
1440.3000, -38.764
1440.4000, -38.935
1440.5000, -38.987
1440.6000, -38.630
1440.7000, -38.781
1440.8000, -38.987
1440.9000, -39.086
1441.0000, -38.968
1441.1000, -39.086
1441.2000, -39.133
1441.3000, -39.115
1441.4000, -39.231
1441.5000, -39.051
1441.6000, -39.071
1441.7000, -39.285
1441.8000, -39.165
1441.9000, -39.379
1442.0000, -39.293
1442.1000, -39.342
1442.2000, -39.102
1442.3000, -39.156
1442.4000, -39.248
1442.5000, -39.007
1442.6000, -39.275
1442.7000, -39.134
1442.8000, -39.248
1442.9000, -39.181
1443.0000, -39.491
1443.1000, -39.518
1443.2000, -39.015
1443.3000, -39.162
1443.4000, -39.177
1443.5000, -39.138
1443.6000, -39.454
1443.7000, -39.055
1443.8000, -39.078
1443.9000, -39.405
1444.0000, -39.355
1444.1000, -39.275
1444.2000, -38.841
1444.3000, -39.293
1444.4000, -39.303
1444.5000, -39.216
1444.6000, -39.587
1444.7000, -39.189
1444.8000, -39.257
1444.9000, -39.085
1445.0000, -38.991
1445.1000, -39.503
1445.2000, -39.009
1445.3000, -39.089
1445.4000, -39.113
1445.5000, -39.203
1445.6000, -39.426
1445.7000, -39.782
1445.8000, -39.447
1445.9000, -39.517
1446.0000, -39.386
1446.1000, -39.488
1446.2000, -39.392
1446.3000, -39.453
1446.4000, -39.216
1446.5000, -39.424
1446.6000, -39.403
1446.7000, -39.437
1446.8000, -39.223
1446.9000, -39.440
1447.0000, -39.507
1447.1000, -39.309
1447.2000, -39.218
1447.3000, -39.365
1447.4000, -39.598
1447.5000, -39.433
1447.6000, -39.593
1447.7000, -39.149
1447.8000, -39.680
1447.9000, -39.604
1448.0000, -39.497
1448.1000, -39.323
1448.2000, -39.672
1448.3000, -39.477
1448.4000, -39.685
1448.5000, -39.551
1448.6000, -39.218
1448.7000, -39.300
1448.8000, -39.497
1448.9000, -39.451
1449.0000, -39.371
1449.1000, -39.225
1449.2000, -39.535
1449.3000, -39.742
1449.4000, -39.313
1449.5000, -39.421
1449.6000, -39.701
1449.7000, -39.762
1449.8000, -39.627
1449.9000, -39.795
1450.0000, -39.853
1450.1000, -39.750
1450.2000, -39.544
1450.3000, -39.853
1450.4000, -39.780
1450.5000, -39.848
1450.6000, -39.626
1450.7000, -39.911
1450.8000, -39.768
1450.9000, -39.616
1451.0000, -39.490
1451.1000, -39.454
1451.2000, -39.599
1451.3000, -39.411
1451.4000, -39.758
1451.5000, -39.713
1451.6000, -39.591
1451.7000, -39.509
1451.8000, -39.633
1451.9000, -39.325
1452.0000, -39.632
1452.1000, -39.555
1452.2000, -39.680
1452.3000, -39.596
1452.4000, -39.723
1452.5000, -39.690
1452.6000, -39.825
1452.7000, -39.610
1452.8000, -40.026
1452.9000, -39.661
1453.0000, -39.961
1453.1000, -39.790
1453.2000, -39.951
1453.3000, -39.740
1453.4000, -39.931
1453.5000, -40.016
1453.6000, -40.049
1453.7000, -39.703
1453.8000, -39.542
1453.9000, -39.878
1454.0000, -39.946
1454.1000, -39.889
1454.2000, -39.635
1454.3000, -39.763
1454.4000, -39.855
1454.5000, -39.686
1454.6000, -39.926
1454.7000, -39.878
1454.8000, -39.961
1454.9000, -39.873
1455.0000, -39.737
1455.1000, -40.039
1455.2000, -39.879
1455.3000, -39.917
1455.4000, -39.830
1455.5000, -39.927
1455.6000, -40.017
1455.7000, -39.775
1455.8000, -39.592
1455.9000, -39.676
1456.0000, -39.735
1456.1000, -40.043
1456.2000, -40.023
1456.3000, -39.899
1456.4000, -40.017
1456.5000, -39.928
1456.6000, -40.128
1456.7000, -40.306
1456.8000, -40.021
1456.9000, -40.517
1457.0000, -40.153
1457.1000, -39.931
1457.2000, -40.291
1457.3000, -40.273
1457.4000, -40.031
1457.5000, -40.115
1457.6000, -40.160
1457.7000, -40.049
1457.8000, -40.390
1457.9000, -40.033
1458.0000, -40.335
1458.1000, -40.166
1458.2000, -40.102
1458.3000, -39.952
1458.4000, -40.110
1458.5000, -40.071
1458.6000, -39.913
1458.7000, -40.179
1458.8000, -40.054
1458.9000, -40.517
1459.0000, -40.385
1459.1000, -40.228
1459.2000, -40.401
1459.3000, -40.176
1459.4000, -40.361
1459.5000, -40.435
1459.6000, -39.960
1459.7000, -40.401
1459.8000, -40.276
1459.9000, -40.305
1460.0000, -40.154
1460.1000, -40.443
1460.2000, -40.438
1460.3000, -40.530
1460.4000, -40.720
1460.5000, -40.772
1460.6000, -40.423
1460.7000, -40.501
1460.8000, -40.356
1460.9000, -40.522
1461.0000, -40.683
1461.1000, -40.421
1461.2000, -40.483
1461.3000, -40.634
1461.4000, -40.405
1461.5000, -40.251
1461.6000, -40.283
1461.7000, -40.470
1461.8000, -40.316
1461.9000, -40.652
1462.0000, -40.460
1462.1000, -40.442
1462.2000, -40.451
1462.3000, -40.570
1462.4000, -40.756
1462.5000, -40.671
1462.6000, -40.283
1462.7000, -40.608
1462.8000, -40.742
1462.9000, -40.613
1463.0000, -40.628
1463.1000, -40.467
1463.2000, -40.750
1463.3000, -40.603
1463.4000, -40.541
1463.5000, -40.768
1463.6000, -40.990
1463.7000, -40.620
1463.8000, -40.529
1463.9000, -40.773
1464.0000, -40.522
1464.1000, -40.274
1464.2000, -40.725
1464.3000, -40.510
1464.4000, -40.876
1464.5000, -40.761
1464.6000, -40.687
1464.7000, -40.622
1464.8000, -40.360
1464.9000, -40.717
1465.0000, -40.356
1465.1000, -40.429
1465.2000, -40.182
1465.3000, -40.482
1465.4000, -40.360
1465.5000, -40.451
1465.6000, -40.722
1465.7000, -40.491
1465.8000, -40.749
1465.9000, -40.723
1466.0000, -40.769
1466.1000, -40.982
1466.2000, -40.752
1466.3000, -40.759
1466.4000, -40.719
1466.5000, -40.561
1466.6000, -40.554
1466.7000, -40.728
1466.8000, -40.427
1466.9000, -40.865
1467.0000, -40.525
1467.1000, -40.770
1467.2000, -40.928
1467.3000, -40.839
1467.4000, -41.007
1467.5000, -40.556
1467.6000, -41.016
1467.7000, -41.060
1467.8000, -40.919
1467.9000, -41.082
1468.0000, -40.488
1468.1000, -40.839
1468.2000, -40.598
1468.3000, -40.771
1468.4000, -40.895
1468.5000, -40.943
1468.6000, -40.855
1468.7000, -40.730
1468.8000, -40.686
1468.9000, -40.888
1469.0000, -40.669
1469.1000, -40.962
1469.2000, -40.880
1469.3000, -40.759
1469.4000, -41.009
1469.5000, -40.772
1469.6000, -40.967
1469.7000, -40.805
1469.8000, -41.160
1469.9000, -40.940
1470.0000, -40.740
1470.1000, -41.227
1470.2000, -41.183
1470.3000, -41.085
1470.4000, -41.130
1470.5000, -41.063
1470.6000, -40.956
1470.7000, -41.051
1470.8000, -40.970
1470.9000, -40.999
1471.0000, -41.247
1471.1000, -40.426
1471.2000, -41.145
1471.3000, -40.972
1471.4000, -40.213
1471.5000, -40.613
1471.6000, -40.496
1471.7000, -40.022
1471.8000, -40.291
1471.9000, -40.296
1472.0000, -40.656
1472.1000, -40.404
1472.2000, -40.574
1472.3000, -40.561
1472.4000, -40.655
1472.5000, -41.068
1472.6000, -41.245
1472.7000, -40.633
1472.8000, -40.808
1472.9000, -40.982
1473.0000, -40.847
1473.1000, -41.108
1473.2000, -40.927
1473.3000, -41.030
1473.4000, -40.829
1473.5000, -41.355
1473.6000, -41.089
1473.7000, -41.421
1473.8000, -40.798
1473.9000, -41.016
1474.0000, -41.013
1474.1000, -41.225
1474.2000, -41.511
1474.3000, -41.119
1474.4000, -40.977
1474.5000, -40.967
1474.6000, -40.881
1474.7000, -41.103
1474.8000, -41.231
1474.9000, -41.017
1475.0000, -41.262
1475.1000, -40.992
1475.2000, -41.292
1475.3000, -41.131
1475.4000, -41.073
1475.5000, -41.123
1475.6000, -41.314
1475.7000, -41.344
1475.8000, -41.136
1475.9000, -41.512
1476.0000, -41.545
1476.1000, -41.462
1476.2000, -41.348
1476.3000, -41.248
1476.4000, -41.337
1476.5000, -41.163
1476.6000, -41.508
1476.7000, -41.227
1476.8000, -41.054
1476.9000, -41.393
1477.0000, -41.343
1477.1000, -41.290
1477.2000, -41.428
1477.3000, -41.672
1477.4000, -41.722
1477.5000, -41.125
1477.6000, -41.726
1477.7000, -41.118
1477.8000, -41.869
1477.9000, -41.816
1478.0000, -41.476
1478.1000, -41.767
1478.2000, -41.292
1478.3000, -41.205
1478.4000, -41.465
1478.5000, -41.387
1478.6000, -41.463
1478.7000, -41.303
1478.8000, -42.002
1478.9000, -41.381
1479.0000, -41.435
1479.1000, -41.475
1479.2000, -41.518
1479.3000, -41.436
1479.4000, -41.705
1479.5000, -41.291
1479.6000, -41.499
1479.7000, -41.669
1479.8000, -41.307
1479.9000, -41.143
1480.0000, -41.635
1480.1000, -41.353
1480.2000, -41.472
1480.3000, -41.108
1480.4000, -41.426
1480.5000, -41.557
1480.6000, -41.389
1480.7000, -41.551
1480.8000, -41.191
1480.9000, -41.830
1481.0000, -41.532
1481.1000, -41.688
1481.2000, -41.529
1481.3000, -41.393
1481.4000, -41.356
1481.5000, -41.880
1481.6000, -41.521
1481.7000, -41.844
1481.8000, -41.442
1481.9000, -42.025
1482.0000, -41.421
1482.1000, -41.362
1482.2000, -41.593
1482.3000, -41.642
1482.4000, -41.874
1482.5000, -41.707
1482.6000, -41.721
1482.7000, -41.433
1482.8000, -41.596
1482.9000, -41.615
1483.0000, -41.652
1483.1000, -41.644
1483.2000, -42.066
1483.3000, -41.378
1483.4000, -41.481
1483.5000, -41.378
1483.6000, -42.052
1483.7000, -41.453
1483.8000, -41.617
1483.9000, -41.767
1484.0000, -41.413
1484.1000, -41.783
1484.2000, -41.172
1484.3000, -41.579
1484.4000, -41.772
1484.5000, -41.698
1484.6000, -41.474
1484.7000, -41.719
1484.8000, -41.266
1484.9000, -41.441
1485.0000, -41.771
1485.1000, -41.518
1485.2000, -41.674
1485.3000, -41.995
1485.4000, -41.494
1485.5000, -41.695
1485.6000, -41.633
1485.7000, -41.394
1485.8000, -41.820
1485.9000, -41.644
1486.0000, -42.082
1486.1000, -41.729
1486.2000, -41.787
1486.3000, -41.282
1486.4000, -41.855
1486.5000, -41.558
1486.6000, -41.603
1486.7000, -41.526
1486.8000, -41.871
1486.9000, -41.796
1487.0000, -41.706
1487.1000, -41.733
1487.2000, -41.651
1487.3000, -41.759
1487.4000, -41.932
1487.5000, -41.819
1487.6000, -41.821
1487.7000, -41.810
1487.8000, -41.417
1487.9000, -41.487
1488.0000, -41.886
1488.1000, -41.760
1488.2000, -41.497
1488.3000, -41.663
1488.4000, -41.694
1488.5000, -41.571
1488.6000, -41.703
1488.7000, -41.535
1488.8000, -41.957
1488.9000, -41.773
1489.0000, -41.988
1489.1000, -41.910
1489.2000, -41.765
1489.3000, -41.577
1489.4000, -41.868
1489.5000, -41.768
1489.6000, -41.752
1489.7000, -41.872
1489.8000, -41.631
1489.9000, -41.561
1490.0000, -41.965
1490.1000, -41.845
1490.2000, -42.006
1490.3000, -41.677
1490.4000, -42.003
1490.5000, -41.993
1490.6000, -41.793
1490.7000, -41.907
1490.8000, -42.142
1490.9000, -41.786
1491.0000, -41.766
1491.1000, -41.866
1491.2000, -41.889
1491.3000, -42.010
1491.4000, -42.066
1491.5000, -42.281
1491.6000, -41.606
1491.7000, -42.206
1491.8000, -41.732
1491.9000, -41.967
1492.0000, -41.761
1492.1000, -41.652
1492.2000, -41.709
1492.3000, -41.635
1492.4000, -42.093
1492.5000, -41.956
1492.6000, -41.857
1492.7000, -42.148
1492.8000, -41.980
1492.9000, -41.748
1493.0000, -41.884
1493.1000, -42.196
1493.2000, -41.936
1493.3000, -41.915
1493.4000, -41.970
1493.5000, -42.177
1493.6000, -42.269
1493.7000, -42.212
1493.8000, -42.202
1493.9000, -42.161
1494.0000, -41.730
1494.1000, -41.827
1494.2000, -42.264
1494.3000, -42.122
1494.4000, -42.307
1494.5000, -42.320
1494.6000, -42.392
1494.7000, -42.244
1494.8000, -42.029
1494.9000, -42.387
1495.0000, -42.228
1495.1000, -42.016
1495.2000, -41.897
1495.3000, -42.041
1495.4000, -41.800
1495.5000, -41.985
1495.6000, -41.804
1495.7000, -41.790
1495.8000, -41.968
1495.9000, -41.916
1496.0000, -42.497
1496.1000, -41.788
1496.2000, -42.348
1496.3000, -42.380
1496.4000, -42.036
1496.5000, -42.043
1496.6000, -41.851
1496.7000, -42.288
1496.8000, -42.033
1496.9000, -42.330
1497.0000, -42.095
1497.1000, -41.943
1497.2000, -41.863
1497.3000, -41.956
1497.4000, -41.981
1497.5000, -42.188
1497.6000, -41.934
1497.7000, -41.935
1497.8000, -42.099
1497.9000, -42.321
1498.0000, -42.121
1498.1000, -42.054
1498.2000, -42.096
1498.3000, -41.868
1498.4000, -41.997
1498.5000, -41.776
1498.6000, -42.092
1498.7000, -42.058
1498.8000, -42.091
1498.9000, -42.134
1499.0000, -42.486
1499.1000, -42.231
1499.2000, -41.860
1499.3000, -41.661
1499.4000, -41.785
1499.5000, -42.155
1499.6000, -41.685
1499.7000, -41.737
1499.8000, -41.736
1499.9000, -42.043
1500.0000, -41.894
1500.1000, -41.930
1500.2000, -41.936
1500.3000, -42.194
1500.4000, -42.346
1500.5000, -42.353
1500.6000, -42.369
1500.7000, -41.930
1500.8000, -42.029
1500.9000, -42.032
1501.0000, -42.415
1501.1000, -42.320
1501.2000, -42.247
1501.3000, -41.737
1501.4000, -41.654
1501.5000, -42.367
1501.6000, -41.893
1501.7000, -41.634
1501.8000, -41.586
1501.9000, -42.046
1502.0000, -42.264
1502.1000, -42.370
1502.2000, -42.150
1502.3000, -41.656
1502.4000, -41.970
1502.5000, -42.061
1502.6000, -42.360
1502.7000, -41.758
1502.8000, -42.210
1502.9000, -42.087
1503.0000, -42.123
1503.1000, -42.129
1503.2000, -42.254
1503.3000, -42.339
1503.4000, -42.278
1503.5000, -42.305
1503.6000, -42.328
1503.7000, -42.482
1503.8000, -42.528
1503.9000, -41.711
1504.0000, -42.360
1504.1000, -42.082
1504.2000, -42.377
1504.3000, -42.403
1504.4000, -42.098
1504.5000, -42.467
1504.6000, -42.175
1504.7000, -42.907
1504.8000, -42.400
1504.9000, -42.425
1505.0000, -42.008
1505.1000, -42.402
1505.2000, -42.466
1505.3000, -42.170
1505.4000, -42.215
1505.5000, -42.206
1505.6000, -42.083
1505.7000, -42.450
1505.8000, -41.931
1505.9000, -42.289
1506.0000, -42.237
1506.1000, -42.609
1506.2000, -42.318
1506.3000, -42.486
1506.4000, -42.100
1506.5000, -42.247
1506.6000, -42.458
1506.7000, -43.101
1506.8000, -42.330
1506.9000, -41.977
1507.0000, -41.949
1507.1000, -42.380
1507.2000, -42.106
1507.3000, -42.293
1507.4000, -42.168
1507.5000, -41.883
1507.6000, -41.900
1507.7000, -42.173
1507.8000, -42.347
1507.9000, -42.202
1508.0000, -42.332
1508.1000, -42.324
1508.2000, -42.395
1508.3000, -42.460
1508.4000, -41.920
1508.5000, -42.435
1508.6000, -42.599
1508.7000, -42.096
1508.8000, -42.129
1508.9000, -42.799
1509.0000, -42.518
1509.1000, -42.032
1509.2000, -42.526
1509.3000, -42.314
1509.4000, -42.448
1509.5000, -42.225
1509.6000, -42.328
1509.7000, -42.366
1509.8000, -42.435
1509.9000, -42.495
1510.0000, -42.677
1510.1000, -42.369
1510.2000, -42.405
1510.3000, -42.327
1510.4000, -42.234
1510.5000, -42.340
1510.6000, -42.403
1510.7000, -42.464
1510.8000, -42.593
1510.9000, -42.047
1511.0000, -42.404
1511.1000, -41.945
1511.2000, -42.142
1511.3000, -42.589
1511.4000, -42.480
1511.5000, -41.568
1511.6000, -42.219
1511.7000, -42.197
1511.8000, -42.478
1511.9000, -42.193
1512.0000, -42.330
1512.1000, -42.594
1512.2000, -42.230
1512.3000, -42.576
1512.4000, -42.855
1512.5000, -42.266
1512.6000, -42.782
1512.7000, -42.323
1512.8000, -42.401
1512.9000, -42.602
1513.0000, -42.562
1513.1000, -42.390
1513.2000, -42.140
1513.3000, -42.329
1513.4000, -42.183
1513.5000, -42.423
1513.6000, -42.569
1513.7000, -42.067
1513.8000, -42.934
1513.9000, -42.486
1514.0000, -42.502
1514.1000, -42.387
1514.2000, -42.505
1514.3000, -42.404
1514.4000, -42.811
1514.5000, -42.486
1514.6000, -42.237
1514.7000, -42.791
1514.8000, -42.595
1514.9000, -42.438
1515.0000, -42.609
1515.1000, -42.375
1515.2000, -42.769
1515.3000, -42.256
1515.4000, -42.196
1515.5000, -42.479
1515.6000, -42.311
1515.7000, -42.352
1515.8000, -42.640
1515.9000, -42.608
1516.0000, -42.458
1516.1000, -42.583
1516.2000, -42.592
1516.3000, -42.311
1516.4000, -42.174
1516.5000, -42.419
1516.6000, -42.500
1516.7000, -42.494
1516.8000, -42.579
1516.9000, -42.617
1517.0000, -42.297
1517.1000, -42.792
1517.2000, -42.859
1517.3000, -42.332
1517.4000, -42.651
1517.5000, -42.222
1517.6000, -42.993
1517.7000, -43.007
1517.8000, -42.822
1517.9000, -42.201
1518.0000, -42.626
1518.1000, -42.580
1518.2000, -42.529
1518.3000, -42.745
1518.4000, -42.728
1518.5000, -42.311
1518.6000, -42.667
1518.7000, -42.262
1518.8000, -42.294
1518.9000, -42.413
1519.0000, -42.574
1519.1000, -42.774
1519.2000, -42.501
1519.3000, -42.426
1519.4000, -42.808
1519.5000, -42.467
1519.6000, -42.575
1519.7000, -42.359
1519.8000, -42.916
1519.9000, -42.437
1520.0000, -42.723
1520.1000, -42.549
1520.2000, -43.054
1520.3000, -42.643
1520.4000, -42.786
1520.5000, -42.427
1520.6000, -42.515
1520.7000, -42.385
1520.8000, -42.642
1520.9000, -42.425
1521.0000, -42.084
1521.1000, -42.349
1521.2000, -42.843
1521.3000, -42.712
1521.4000, -42.766
1521.5000, -42.854
1521.6000, -42.488
1521.7000, -42.816
1521.8000, -42.378
1521.9000, -42.970
1522.0000, -42.769
1522.1000, -42.373
1522.2000, -42.343
1522.3000, -42.677
1522.4000, -42.093
1522.5000, -42.576
1522.6000, -42.475
1522.7000, -42.779
1522.8000, -42.724
1522.9000, -42.851
1523.0000, -42.265
1523.1000, -42.730
1523.2000, -42.861
1523.3000, -42.412
1523.4000, -42.533
1523.5000, -42.664
1523.6000, -42.551
1523.7000, -42.489
1523.8000, -42.476
1523.9000, -43.014
1524.0000, -42.377
1524.1000, -42.447
1524.2000, -42.793
1524.3000, -42.503
1524.4000, -42.331
1524.5000, -42.331
1524.6000, -42.968
1524.7000, -42.302
1524.8000, -42.664
1524.9000, -42.303
1525.0000, -42.492
1525.1000, -42.234
1525.2000, -42.664
1525.3000, -42.718
1525.4000, -42.768
1525.5000, -42.690
1525.6000, -42.605
1525.7000, -43.055
1525.8000, -42.655
1525.9000, -42.474
1526.0000, -41.940
1526.1000, -42.862
1526.2000, -42.446
1526.3000, -42.889
1526.4000, -42.635
1526.5000, -42.836
1526.6000, -42.244
1526.7000, -42.715
1526.8000, -42.695
1526.9000, -42.555
1527.0000, -42.695
1527.1000, -42.419
1527.2000, -42.820
1527.3000, -42.639
1527.4000, -42.696
1527.5000, -42.727
1527.6000, -42.740
1527.7000, -42.808
1527.8000, -42.435
1527.9000, -42.820
1528.0000, -42.607
1528.1000, -42.691
1528.2000, -42.828
1528.3000, -42.807
1528.4000, -42.590
1528.5000, -43.134
1528.6000, -42.694
1528.7000, -42.665
1528.8000, -42.635
1528.9000, -42.970
1529.0000, -42.832
1529.1000, -43.313
1529.2000, -42.749
1529.3000, -42.568
1529.4000, -42.859
1529.5000, -42.960
1529.6000, -42.966
1529.7000, -42.918
1529.8000, -42.794
1529.9000, -42.931
1530.0000, -42.817
1530.1000, -42.550
1530.2000, -42.809
1530.3000, -42.860
1530.4000, -42.658
1530.5000, -42.611
1530.6000, -42.965
1530.7000, -42.697
1530.8000, -43.087
1530.9000, -43.324
1531.0000, -43.030
1531.1000, -42.819
1531.2000, -42.885
1531.3000, -43.122
1531.4000, -42.466
1531.5000, -43.066
1531.6000, -42.607
1531.7000, -43.046
1531.8000, -42.923
1531.9000, -43.088
1532.0000, -43.342
1532.1000, -42.894
1532.2000, -43.107
1532.3000, -42.474
1532.4000, -42.963
1532.5000, -42.572
1532.6000, -43.034
1532.7000, -42.994
1532.8000, -42.465
1532.9000, -42.663
1533.0000, -43.125
1533.1000, -42.754
1533.2000, -42.730
1533.3000, -43.172
1533.4000, -43.006
1533.5000, -43.302
1533.6000, -42.904
1533.7000, -43.275
1533.8000, -43.022
1533.9000, -43.034
1534.0000, -43.167
1534.1000, -42.856
1534.2000, -43.073
1534.3000, -43.106
1534.4000, -43.394
1534.5000, -43.296
1534.6000, -43.264
1534.7000, -43.287
1534.8000, -42.827
1534.9000, -42.619
1535.0000, -43.001
1535.1000, -42.735
1535.2000, -43.347
1535.3000, -43.220
1535.4000, -43.177
1535.5000, -43.284
1535.6000, -43.410
1535.7000, -43.330
1535.8000, -43.186
1535.9000, -43.130
1536.0000, -43.873
1536.1000, -43.300
1536.2000, -43.156
1536.3000, -42.983
1536.4000, -43.744
1536.5000, -43.058
1536.6000, -43.868
1536.7000, -43.173
1536.8000, -42.836
1536.9000, -43.077
1537.0000, -43.240
1537.1000, -43.222
1537.2000, -43.100
1537.3000, -43.418
1537.4000, -43.187
1537.5000, -43.198
1537.6000, -43.127
1537.7000, -43.279
1537.8000, -43.204
1537.9000, -43.470
1538.0000, -43.383
1538.1000, -43.418
1538.2000, -43.417
1538.3000, -43.327
1538.4000, -42.996
1538.5000, -43.157
1538.6000, -42.865
1538.7000, -43.080
1538.8000, -43.031
1538.9000, -43.286
1539.0000, -43.490
1539.1000, -43.154
1539.2000, -43.528
1539.3000, -43.012
1539.4000, -43.121
1539.5000, -43.284
1539.6000, -43.049
1539.7000, -42.888
1539.8000, -43.428
1539.9000, -42.764
1540.0000, -42.951
1540.1000, -43.872
1540.2000, -43.466
1540.3000, -43.515
1540.4000, -43.137
1540.5000, -43.439
1540.6000, -43.287
1540.7000, -43.245
1540.8000, -43.104
1540.9000, -43.692
1541.0000, -43.492
1541.1000, -43.434
1541.2000, -43.275
1541.3000, -42.904
1541.4000, -43.550
1541.5000, -43.266
1541.6000, -43.560
1541.7000, -43.388
1541.8000, -43.409
1541.9000, -43.379
1542.0000, -43.769
1542.1000, -43.665
1542.2000, -43.388
1542.3000, -43.399
1542.4000, -43.810
1542.5000, -43.633
1542.6000, -43.585
1542.7000, -43.433
1542.8000, -43.361
1542.9000, -43.362
1543.0000, -43.232
1543.1000, -43.422
1543.2000, -43.172
1543.3000, -43.481
1543.4000, -43.460
1543.5000, -43.315
1543.6000, -43.035
1543.7000, -43.284
1543.8000, -43.341
1543.9000, -43.592
1544.0000, -43.787
1544.1000, -43.384
1544.2000, -43.295
1544.3000, -43.804
1544.4000, -43.404
1544.5000, -43.375
1544.6000, -43.502
1544.7000, -44.123
1544.8000, -43.365
1544.9000, -43.264
1545.0000, -42.883
1545.1000, -43.170
1545.2000, -43.404
1545.3000, -43.385
1545.4000, -44.128
1545.5000, -43.097
1545.6000, -43.584
1545.7000, -43.374
1545.8000, -43.449
1545.9000, -43.183
1546.0000, -43.379
1546.1000, -43.436
1546.2000, -43.548
1546.3000, -43.314
1546.4000, -43.408
1546.5000, -43.802
1546.6000, -43.434
1546.7000, -43.246
1546.8000, -43.905
1546.9000, -43.558
1547.0000, -43.915
1547.1000, -43.600
1547.2000, -43.497
1547.3000, -43.738
1547.4000, -43.629
1547.5000, -43.414
1547.6000, -43.403
1547.7000, -43.541
1547.8000, -43.398
1547.9000, -43.493
1548.0000, -43.453
1548.1000, -43.628
1548.2000, -43.733
1548.3000, -43.554
1548.4000, -43.870
1548.5000, -43.831
1548.6000, -43.861
1548.7000, -43.650
1548.8000, -43.664
1548.9000, -43.605
1549.0000, -43.333
1549.1000, -43.755
1549.2000, -43.444
1549.3000, -43.192
1549.4000, -43.682
1549.5000, -43.370
1549.6000, -43.826
1549.7000, -43.801
1549.8000, -43.712
1549.9000, -43.521
1550.0000, -43.948
1550.1000, -43.689
1550.2000, -43.567
1550.3000, -43.766
1550.4000, -44.005
1550.5000, -43.903
1550.6000, -43.790
1550.7000, -43.813
1550.8000, -43.903
1550.9000, -43.474
1551.0000, -44.305
1551.1000, -43.306
1551.2000, -43.706
1551.3000, -43.802
1551.4000, -43.760
1551.5000, -43.710
1551.6000, -44.182
1551.7000, -43.858
1551.8000, -43.658
1551.9000, -43.538
1552.0000, -43.869
1552.1000, -43.798
1552.2000, -44.208
1552.3000, -43.567
1552.4000, -44.142
1552.5000, -44.044
1552.6000, -43.880
1552.7000, -43.706
1552.8000, -43.887
1552.9000, -44.010
1553.0000, -44.199
1553.1000, -43.593
1553.2000, -44.046
1553.3000, -44.206
1553.4000, -44.090
1553.5000, -44.180
1553.6000, -43.903
1553.7000, -44.232
1553.8000, -43.953
1553.9000, -43.993
1554.0000, -44.216
1554.1000, -43.902
1554.2000, -43.926
1554.3000, -43.709
1554.4000, -44.429
1554.5000, -44.516
1554.6000, -44.561
1554.7000, -44.143
1554.8000, -43.700
1554.9000, -44.033
1555.0000, -44.222
1555.1000, -43.799
1555.2000, -44.722
1555.3000, -43.754
1555.4000, -43.888
1555.5000, -43.684
1555.6000, -43.996
1555.7000, -43.963
1555.8000, -43.878
1555.9000, -44.727
1556.0000, -44.314
1556.1000, -44.249
1556.2000, -44.314
1556.3000, -44.107
1556.4000, -44.454
1556.5000, -44.279
1556.6000, -43.816
1556.7000, -44.228
1556.8000, -44.360
1556.9000, -44.227
1557.0000, -44.542
1557.1000, -44.012
1557.2000, -43.866
1557.3000, -44.447
1557.4000, -44.415
1557.5000, -44.726
1557.6000, -44.604
1557.7000, -44.470
1557.8000, -43.998
1557.9000, -44.272
1558.0000, -44.401
1558.1000, -43.820
1558.2000, -44.524
1558.3000, -44.386
1558.4000, -44.644
1558.5000, -44.248
1558.6000, -44.716
1558.7000, -44.026
1558.8000, -44.751
1558.9000, -44.379
1559.0000, -44.382
1559.1000, -44.540
1559.2000, -43.991
1559.3000, -44.579
1559.4000, -44.415
1559.5000, -44.078
1559.6000, -44.597
1559.7000, -44.157
1559.8000, -44.594
1559.9000, -44.197
1560.0000, -44.678
1560.1000, -44.842
1560.2000, -44.357
1560.3000, -44.600
1560.4000, -44.111
1560.5000, -44.215
1560.6000, -44.150
1560.7000, -44.236
1560.8000, -44.256
1560.9000, -44.458
1561.0000, -44.194
1561.1000, -44.297
1561.2000, -44.162
1561.3000, -43.993
1561.4000, -44.752
1561.5000, -44.591
1561.6000, -44.419
1561.7000, -44.206
1561.8000, -44.220
1561.9000, -45.014
1562.0000, -44.732
1562.1000, -44.068
1562.2000, -44.899
1562.3000, -44.635
1562.4000, -44.280
1562.5000, -44.187
1562.6000, -44.421
1562.7000, -44.646
1562.8000, -44.718
1562.9000, -44.745
1563.0000, -44.138
1563.1000, -44.549
1563.2000, -44.443
1563.3000, -44.757
1563.4000, -44.551
1563.5000, -44.207
1563.6000, -44.334
1563.7000, -44.303
1563.8000, -44.460
1563.9000, -44.781
1564.0000, -44.418
1564.1000, -44.887
1564.2000, -44.404
1564.3000, -44.409
1564.4000, -44.362
1564.5000, -45.003
1564.6000, -43.987
1564.7000, -44.961
1564.8000, -44.838
1564.9000, -44.937
1565.0000, -44.684
1565.1000, -44.334
1565.2000, -44.612
1565.3000, -44.603
1565.4000, -44.746
1565.5000, -44.743
1565.6000, -44.818
1565.7000, -44.483
1565.8000, -44.884
1565.9000, -44.890
1566.0000, -44.817
1566.1000, -44.534
1566.2000, -44.528
1566.3000, -44.994
1566.4000, -44.907
1566.5000, -44.771
1566.6000, -44.823
1566.7000, -44.828
1566.8000, -44.688
1566.9000, -44.799
1567.0000, -44.480
1567.1000, -45.119
1567.2000, -44.463
1567.3000, -45.071
1567.4000, -45.059
1567.5000, -45.022
1567.6000, -44.684
1567.7000, -44.343
1567.8000, -44.207
1567.9000, -44.660
1568.0000, -44.860
1568.1000, -44.425
1568.2000, -44.683
1568.3000, -44.850
1568.4000, -44.747
1568.5000, -45.447
1568.6000, -44.750
1568.7000, -44.760
1568.8000, -44.796
1568.9000, -45.265
1569.0000, -45.102
1569.1000, -45.251
1569.2000, -44.991
1569.3000, -44.994
1569.4000, -45.727
1569.5000, -45.012
1569.6000, -44.807
1569.7000, -44.817
1569.8000, -44.639
1569.9000, -45.094
1570.0000, -44.981
1570.1000, -45.148
1570.2000, -45.214
1570.3000, -45.616
1570.4000, -45.678
1570.5000, -44.846
1570.6000, -45.279
1570.7000, -44.699
1570.8000, -45.007
1570.9000, -44.842
1571.0000, -45.225
1571.1000, -44.933
1571.2000, -45.644
1571.3000, -45.354
1571.4000, -45.210
1571.5000, -45.515
1571.6000, -45.594
1571.7000, -45.933
1571.8000, -45.771
1571.9000, -45.341
1572.0000, -45.353
1572.1000, -45.407
1572.2000, -45.483
1572.3000, -45.673
1572.4000, -45.585
1572.5000, -44.880
1572.6000, -46.105
1572.7000, -45.549
1572.8000, -45.667
1572.9000, -45.484
1573.0000, -45.881
1573.1000, -45.102
1573.2000, -45.339
1573.3000, -45.665
1573.4000, -45.183
1573.5000, -46.348
1573.6000, -46.136
1573.7000, -45.783
1573.8000, -45.546
1573.9000, -45.541
1574.0000, -45.830
1574.1000, -45.521
1574.2000, -45.963
1574.3000, -46.083
1574.4000, -46.206
1574.5000, -45.902
1574.6000, -46.395
1574.7000, -45.647
1574.8000, -46.332
1574.9000, -45.819
1575.0000, -45.829
1575.1000, -45.392
1575.2000, -46.442
1575.3000, -45.956
1575.4000, -46.811
1575.5000, -46.403
1575.6000, -45.757
1575.7000, -45.448
1575.8000, -46.331
1575.9000, -46.209
1576.0000, -46.483
1576.1000, -46.291
1576.2000, -45.663
1576.3000, -46.024
1576.4000, -45.730
1576.5000, -45.962
1576.6000, -45.496
1576.7000, -45.987
1576.8000, -46.519
1576.9000, -46.563
1577.0000, -46.594
1577.1000, -46.438
1577.2000, -46.231
1577.3000, -46.352
1577.4000, -46.498
1577.5000, -46.458
1577.6000, -46.557
1577.7000, -46.209
1577.8000, -46.236
1577.9000, -46.623
1578.0000, -46.988
1578.1000, -46.987
1578.2000, -46.676
1578.3000, -46.724
1578.4000, -46.906
1578.5000, -46.065
1578.6000, -46.900
1578.7000, -46.486
1578.8000, -46.907
1578.9000, -46.872
1579.0000, -46.671
1579.1000, -46.836
1579.2000, -46.796
1579.3000, -46.547
1579.4000, -47.077
1579.5000, -46.584
1579.6000, -47.001
1579.7000, -47.047
1579.8000, -46.807
1579.9000, -47.126
1580.0000, -46.786
1580.1000, -46.305
1580.2000, -47.109
1580.3000, -47.200
1580.4000, -47.560
1580.5000, -47.074
1580.6000, -47.504
1580.7000, -47.216
1580.8000, -47.655
1580.9000, -47.422
1581.0000, -46.420
1581.1000, -47.450
1581.2000, -46.610
1581.3000, -47.090
1581.4000, -47.582
1581.5000, -47.450
1581.6000, -47.092
1581.7000, -47.424
1581.8000, -47.233
1581.9000, -47.536
1582.0000, -48.208
1582.1000, -47.303
1582.2000, -47.425
1582.3000, -48.269
1582.4000, -47.183
1582.5000, -47.646
1582.6000, -47.475
1582.7000, -48.174
1582.8000, -47.744
1582.9000, -48.353
1583.0000, -48.187
1583.1000, -48.417
1583.2000, -47.302
1583.3000, -48.550
1583.4000, -47.728
1583.5000, -47.672
1583.6000, -48.322
1583.7000, -48.122
1583.8000, -48.647
1583.9000, -47.649
1584.0000, -47.824
1584.1000, -48.022
1584.2000, -48.559
1584.3000, -48.941
1584.4000, -48.051
1584.5000, -47.956
1584.6000, -47.502
1584.7000, -48.486
1584.8000, -48.131
1584.9000, -48.518
1585.0000, -47.926
1585.1000, -47.784
1585.2000, -48.091
1585.3000, -48.776
1585.4000, -48.227
1585.5000, -48.307
1585.6000, -48.577
1585.7000, -48.144
1585.8000, -48.451
1585.9000, -48.233
1586.0000, -48.017
1586.1000, -48.992
1586.2000, -48.398
1586.3000, -48.690
1586.4000, -48.789
1586.5000, -48.671
1586.6000, -48.834
1586.7000, -48.157
1586.8000, -49.591
1586.9000, -49.003
1587.0000, -48.731
1587.1000, -48.949
1587.2000, -48.476
1587.3000, -49.549
1587.4000, -49.145
1587.5000, -49.089
1587.6000, -49.513
1587.7000, -49.613
1587.8000, -49.592
1587.9000, -48.567
1588.0000, -50.004
1588.1000, -49.502
1588.2000, -49.901
1588.3000, -49.551
1588.4000, -50.030
1588.5000, -49.255
1588.6000, -49.524
1588.7000, -49.182
1588.8000, -49.002
1588.9000, -49.422
1589.0000, -49.586
1589.1000, -49.800
1589.2000, -49.218
1589.3000, -50.340
1589.4000, -49.679
1589.5000, -49.706
1589.6000, -49.619
1589.7000, -49.298
1589.8000, -49.866
1589.9000, -50.598
1590.0000, -50.162
1590.1000, -50.180
1590.2000, -50.758
1590.3000, -50.464
1590.4000, -50.528
1590.5000, -51.013
1590.6000, -50.795
1590.7000, -50.166
1590.8000, -50.473
1590.9000, -50.422
1591.0000, -51.256
1591.1000, -50.055
1591.2000, -51.923
1591.3000, -50.681
1591.4000, -50.815
1591.5000, -50.253
1591.6000, -51.300
1591.7000, -49.789
1591.8000, -50.536
1591.9000, -50.539
1592.0000, -51.948
1592.1000, -51.045
1592.2000, -51.144
1592.3000, -50.273
1592.4000, -52.086
1592.5000, -50.592
1592.6000, -52.681
1592.7000, -51.286
1592.8000, -51.665
1592.9000, -51.207
1593.0000, -51.252
1593.1000, -50.419
1593.2000, -51.948
1593.3000, -50.776
1593.4000, -49.904
1593.5000, -50.948
1593.6000, -52.946
1593.7000, -50.434
1593.8000, -52.894
1593.9000, -52.403
1594.0000, -51.536
1594.1000, -52.345
1594.2000, -51.653
1594.3000, -51.579
1594.4000, -51.298
1594.5000, -53.348
1594.6000, -52.533
1594.7000, -52.647
1594.8000, -51.387
1594.9000, -51.448
1595.0000, -51.708
1595.1000, -53.417
1595.2000, -50.873
1595.3000, -50.334
1595.4000, -51.744
1595.5000, -53.099
1595.6000, -52.967
1595.7000, -51.995
1595.8000, -51.770
1595.9000, -52.307
1596.0000, -53.081
1596.1000, -53.401
1596.2000, -53.029
1596.3000, -52.757
1596.4000, -53.423
1596.5000, -52.537
1596.6000, -52.405
1596.7000, -52.813
1596.8000, -53.876
1596.9000, -52.165
1597.0000, -53.846
1597.1000, -52.411
1597.2000, -52.571
1597.3000, -53.086
1597.4000, -52.317
1597.5000, -53.244
1597.6000, -52.213
1597.7000, -52.751
1597.8000, -53.637
1597.9000, -52.079
1598.0000, -52.754
1598.1000, -53.346
1598.2000, -53.556
1598.3000, -55.173
1598.4000, -53.325
1598.5000, -53.821
1598.6000, -53.122
1598.7000, -53.577
1598.8000, -53.617
1598.9000, -53.133
1599.0000, -54.775
1599.1000, -55.020
1599.2000, -56.480
1599.3000, -54.923
1599.4000, -53.868
1599.5000, -53.951
1599.6000, -54.395
1599.7000, -54.495
1599.8000, -54.768
1599.9000, -53.440
1600.0000, -53.422
1600.1000, -53.243
1600.2000, -53.367
1600.3000, -55.869
1600.4000, -54.675
1600.5000, -54.277
1600.6000, -54.103
1600.7000, -54.281
1600.8000, -54.255
1600.9000, -54.330
1601.0000, -55.684
1601.1000, -55.613
1601.2000, -55.535
1601.3000, -54.224
1601.4000, -55.586
1601.5000, -54.972
1601.6000, -56.522
1601.7000, -54.421
1601.8000, -54.815
1601.9000, -54.443
1602.0000, -54.966
1602.1000, -54.478
1602.2000, -54.933
1602.3000, -56.072
1602.4000, -54.638
1602.5000, -57.154
1602.6000, -55.530
1602.7000, -54.640
1602.8000, -57.139
1602.9000, -55.636
1603.0000, -53.961
1603.1000, -57.543
1603.2000, -56.483
1603.3000, -57.494
1603.4000, -56.410
1603.5000, -56.189
1603.6000, -56.249
1603.7000, -55.882
1603.8000, -55.749
1603.9000, -55.738
1604.0000, -58.898
1604.1000, -56.680
1604.2000, -55.957
1604.3000, -55.774
1604.4000, -56.659
1604.5000, -56.766
1604.6000, -57.201
1604.7000, -56.399
1604.8000, -55.425
1604.9000, -55.488
1605.0000, -55.972
1605.1000, -56.847
1605.2000, -56.078
1605.3000, -56.634
1605.4000, -57.886
1605.5000, -57.740
1605.6000, -57.708
1605.7000, -56.667
1605.8000, -56.863
1605.9000, -58.637
1606.0000, -57.207
1606.1000, -57.357
1606.2000, -56.042
1606.3000, -59.815
1606.4000, -57.291
1606.5000, -60.147
1606.6000, -58.277
1606.7000, -56.970
1606.8000, -59.617
1606.9000, -56.931
1607.0000, -56.624
1607.1000, -59.502
1607.2000, -58.078
1607.3000, -58.944
1607.4000, -58.055
1607.5000, -56.999
1607.6000, -58.603
1607.7000, -57.316
1607.8000, -57.056
1607.9000, -59.013
1608.0000, -58.216
1608.1000, -57.696
1608.2000, -57.113
1608.3000, -57.756
1608.4000, -58.577
1608.5000, -57.427
1608.6000, -59.462
1608.7000, -61.876
1608.8000, -58.050
1608.9000, -59.823
1609.0000, -58.583
1609.1000, -57.619
1609.2000, -57.821
1609.3000, -60.897
1609.4000, -58.363
1609.5000, -59.817
1609.6000, -61.331
1609.7000, -60.620
1609.8000, -61.242
1609.9000, -58.528
1610.0000, -58.406
1610.1000, -59.320
1610.2000, -59.838
1610.3000, -62.492
1610.4000, -61.834
1610.5000, -59.024
1610.6000, -60.012
1610.7000, -61.088
1610.8000, -59.558
1610.9000, -58.100
1611.0000, -60.493
1611.1000, -59.546
1611.2000, -59.483
1611.3000, -63.001
1611.4000, -62.806
1611.5000, -60.581
1611.6000, -59.726
1611.7000, -64.226
1611.8000, -59.546
1611.9000, -64.346
1612.0000, -60.445
1612.1000, -61.690
1612.2000, -60.680
1612.3000, -59.648
1612.4000, -61.032
1612.5000, -62.206
1612.6000, -59.434
1612.7000, -59.787
1612.8000, -62.092
1612.9000, -62.042
1613.0000, -63.480
1613.1000, -61.485
1613.2000, -61.967
1613.3000, -63.866
1613.4000, -64.372
1613.5000, -63.211
1613.6000, -63.353
1613.7000, -68.545
1613.8000, -59.832
1613.9000, -61.711
1614.0000, -64.954
1614.1000, -62.298
1614.2000, -60.912
1614.3000, -66.657
1614.4000, -60.886
1614.5000, -67.550
1614.6000, -60.742
1614.7000, -63.292
1614.8000, -63.341
1614.9000, -58.725
1615.0000, -60.949
1615.1000, -64.042
1615.2000, -66.689
1615.3000, -65.350
1615.4000, -62.292
1615.5000, -61.239
1615.6000, -62.808
1615.7000, -60.835
1615.8000, -65.519
1615.9000, -60.931
1616.0000, -63.089
1616.1000, -62.997
1616.2000, -64.064
1616.3000, -60.884
1616.4000, -63.427
1616.5000, -62.714
1616.6000, -64.869
1616.7000, -69.391
1616.8000, -63.988
1616.9000, -64.960
1617.0000, -70.332
1617.1000, -63.854
1617.2000, -62.335
1617.3000, -63.596
1617.4000, -63.974
1617.5000, -65.426
1617.6000, -63.325
1617.7000, -63.672
1617.8000, -67.311
1617.9000, -67.352
1618.0000, -67.204
1618.1000, -64.720
1618.2000, -64.326
1618.3000, -66.792
1618.4000, -66.056
1618.5000, -62.722
1618.6000, -63.397
1618.7000, -64.235
1618.8000, -60.664
1618.9000, -71.323
1619.0000, -64.295
1619.1000, -63.607
1619.2000, -64.327
1619.3000, -63.852
1619.4000, -63.277
1619.5000, -63.515
1619.6000, -67.504
1619.7000, -64.780
1619.8000, -67.494
1619.9000, -66.847
1620.0000, -68.840
1620.1000, -70.800
1620.2000, -61.696
1620.3000, -69.766
1620.4000, -68.999
1620.5000, -65.450
1620.6000, -62.952
1620.7000, -62.667
1620.8000, -66.822
1620.9000, -66.186
1621.0000, -63.452
1621.1000, -69.247
1621.2000, -65.328
1621.3000, -64.953
1621.4000, -67.795
1621.5000, -66.784
1621.6000, -64.638
1621.7000, -64.276
1621.8000, -67.500
1621.9000, -64.625
1622.0000, -67.653
1622.1000, -67.193
1622.2000, -65.941
1622.3000, -63.757
1622.4000, -70.189
1622.5000, -62.935
1622.6000, -62.070
1622.7000, -73.554
1622.8000, -66.354
1622.9000, -66.372
1623.0000, -66.614
1623.1000, -61.241
1623.2000, -68.640
1623.3000, -64.875
1623.4000, -68.296
1623.5000, -64.311
1623.6000, -62.032
1623.7000, -67.111
1623.8000, -66.996
1623.9000, -67.248
1624.0000, -66.044
1624.1000, -64.139
1624.2000, -67.030
1624.3000, -73.238
1624.4000, -73.618
1624.5000, -64.635
1624.6000, -67.729
1624.7000, -74.303
1624.8000, -65.336
1624.9000, -69.572
1625.0000, -66.869
1625.1000, -66.686
1625.2000, -69.103
1625.3000, -70.223
1625.4000, -62.711
1625.5000, -65.784
1625.6000, -69.794
1625.7000, -70.718
1625.8000, -64.440
1625.9000, -70.733
1626.0000, -73.437
1626.1000, -74.329
1626.2000, -73.025
1626.3000, -65.518
1626.4000, -68.266
1626.5000, -65.551
1626.6000, -74.521
1626.7000, -69.320
1626.8000, -67.415
1626.9000, -68.624
1627.0000, -71.742
1627.1000, -74.029
1627.2000, -67.191
1627.3000, -73.095
1627.4000, -69.735
1627.5000, -65.885
1627.6000, -72.105
1627.7000, -72.631
1627.8000, -73.214
1627.9000, -73.971
1628.0000, -74.777
1628.1000, -75.442
1628.2000, -71.045
1628.3000, -67.057
1628.4000, -72.967
1628.5000, -68.118
1628.6000, -66.787
1628.7000, -75.939
1628.8000, -73.993
1628.9000, -74.561
1629.0000, -71.498
1629.1000, -74.774
1629.2000, -73.422
1629.3000, -68.811
1629.4000, -67.738
1629.5000, -72.077
1629.6000, -73.896
1629.7000, -70.819
1629.8000, -72.580
1629.9000, -73.024
1630.0000, -69.718
1630.1000, -73.580
1630.2000, -72.475
1630.3000, -75.387
1630.4000, -68.790
1630.5000, -70.785
1630.6000, -66.522
1630.7000, -74.410
1630.8000, -72.943
1630.9000, -74.496
1631.0000, -71.332
1631.1000, -62.329
1631.2000, -74.140
1631.3000, -73.024
1631.4000, -75.758
1631.5000, -74.765
1631.6000, -67.394
1631.7000, -63.717
1631.8000, -73.435
1631.9000, -74.080
1632.0000, -72.652
1632.1000, -74.843
1632.2000, -73.297
1632.3000, -71.964
1632.4000, -71.101
1632.5000, -69.150
1632.6000, -74.722
1632.7000, -67.448
1632.8000, -73.676
1632.9000, -73.969
1633.0000, -66.642
1633.1000, -73.476
1633.2000, -68.769
1633.3000, -72.482
1633.4000, -74.129
1633.5000, -73.319
1633.6000, -76.796
1633.7000, -72.237
1633.8000, -75.971
1633.9000, -71.266
1634.0000, -73.474
1634.1000, -73.542
1634.2000, -74.282
1634.3000, -74.372
1634.4000, -70.907
1634.5000, -74.217
1634.6000, -75.517
1634.7000, -72.488
1634.8000, -73.701
1634.9000, -73.912
1635.0000, -72.472
1635.1000, -74.650
1635.2000, -74.313
1635.3000, -69.929
1635.4000, -71.148
1635.5000, -73.613
1635.6000, -73.700
1635.7000, -73.407
1635.8000, -74.520
1635.9000, -69.125
1636.0000, -73.981
1636.1000, -74.935
1636.2000, -74.282
1636.3000, -74.082
1636.4000, -72.157
1636.5000, -71.663
1636.6000, -73.740
1636.7000, -74.539
1636.8000, -66.023
1636.9000, -72.768
1637.0000, -72.076
1637.1000, -74.796
1637.2000, -73.977
1637.3000, -68.038
1637.4000, -72.957
1637.5000, -72.952
1637.6000, -73.982
1637.7000, -73.172
1637.8000, -73.425
1637.9000, -73.605
1638.0000, -74.152
1638.1000, -73.306
1638.2000, -74.005
1638.3000, -72.755
1638.4000, -73.641
1638.5000, -74.276
1638.6000, -72.613
1638.7000, -70.604
1638.8000, -71.000
1638.9000, -72.434
1639.0000, -68.530
1639.1000, -73.482
1639.2000, -73.995
1639.3000, -72.129
1639.4000, -70.931
1639.5000, -73.525
1639.6000, -72.962
1639.7000, -73.846
1639.8000, -73.635
1639.9000, -72.618
1640.0000, -74.288
1640.1000, -72.065
1640.2000, -73.033
1640.3000, -75.426
1640.4000, -72.541
1640.5000, -73.750
1640.6000, -72.326
1640.7000, -73.522
1640.8000, -74.586
1640.9000, -73.462
1641.0000, -72.238
1641.1000, -73.000
1641.2000, -73.168
1641.3000, -73.861
1641.4000, -70.331
1641.5000, -73.310
1641.6000, -71.679
1641.7000, -74.391
1641.8000, -73.111
1641.9000, -66.329
1642.0000, -73.267
1642.1000, -72.532
1642.2000, -72.248
1642.3000, -71.999
1642.4000, -73.687
1642.5000, -72.471
1642.6000, -71.819
1642.7000, -73.544
1642.8000, -73.289
1642.9000, -73.247
1643.0000, -72.151
1643.1000, -73.265
1643.2000, -73.044
1643.3000, -72.755
1643.4000, -71.559
1643.5000, -72.793
1643.6000, -71.881
1643.7000, -71.110
1643.8000, -72.385
1643.9000, -71.295
1644.0000, -72.646
1644.1000, -72.381
1644.2000, -72.449
1644.3000, -71.570
1644.4000, -71.990
1644.5000, -70.185
1644.6000, -70.787
1644.7000, -71.756
1644.8000, -73.993
1644.9000, -71.112
1645.0000, -71.317
1645.1000, -72.600
1645.2000, -72.239
1645.3000, -73.078
1645.4000, -72.648
1645.5000, -71.600
1645.6000, -72.117
1645.7000, -71.887
1645.8000, -72.631
1645.9000, -71.874
1646.0000, -72.979
1646.1000, -70.902
1646.2000, -72.257
1646.3000, -72.388
1646.4000, -72.208
1646.5000, -70.754
1646.6000, -72.047
1646.7000, -71.825
1646.8000, -66.916
1646.9000, -70.929
1647.0000, -71.611
1647.1000, -70.917
1647.2000, -72.870
1647.3000, -71.658
1647.4000, -71.206
1647.5000, -70.214
1647.6000, -71.627
1647.7000, -71.549
1647.8000, -72.064
1647.9000, -71.410
1648.0000, -70.575
1648.1000, -71.786
1648.2000, -70.508
1648.3000, -71.360
1648.4000, -72.150
1648.5000, -71.028
1648.6000, -70.880
1648.7000, -71.254
1648.8000, -71.516
1648.9000, -71.991
1649.0000, -70.695
1649.1000, -71.409
1649.2000, -71.072
1649.3000, -71.089
1649.4000, -69.388
1649.5000, -72.557
1649.6000, -69.247
1649.7000, -71.652
1649.8000, -70.243
1649.9000, -71.267
1650.0000, -71.254
1650.1000, -71.608
1650.2000, -70.068
1650.3000, -70.552
1650.4000, -70.861
1650.5000, -69.846
1650.6000, -71.523
1650.7000, -70.963
1650.8000, -70.688
1650.9000, -70.322
1651.0000, -70.669
1651.1000, -71.618
1651.2000, -69.523
1651.3000, -68.217
1651.4000, -70.668
1651.5000, -70.218
1651.6000, -70.028
1651.7000, -70.144
1651.8000, -69.988
1651.9000, -71.057
1652.0000, -71.252
1652.1000, -69.515
1652.2000, -70.446
1652.3000, -70.778
1652.4000, -70.106
1652.5000, -70.087
1652.6000, -70.337
1652.7000, -69.510
1652.8000, -70.584
1652.9000, -70.283
1653.0000, -69.575
1653.1000, -70.864
1653.2000, -69.120
1653.3000, -70.221
1653.4000, -70.047
1653.5000, -69.859
1653.6000, -69.616
1653.7000, -69.483
1653.8000, -69.770
1653.9000, -69.785
1654.0000, -69.821
1654.1000, -68.121
1654.2000, -68.096
1654.3000, -69.790
1654.4000, -69.835
1654.5000, -70.230
1654.6000, -70.394
1654.7000, -68.926
1654.8000, -70.362
1654.9000, -69.410
1655.0000, -69.384
1655.1000, -69.856
1655.2000, -68.840
1655.3000, -68.336
1655.4000, -69.218
1655.5000, -70.661
1655.6000, -68.278
1655.7000, -69.938
1655.8000, -69.137
1655.9000, -68.770
1656.0000, -70.408
1656.1000, -69.255
1656.2000, -68.115
1656.3000, -72.078
1656.4000, -68.953
1656.5000, -68.599
1656.6000, -69.525
1656.7000, -69.903
1656.8000, -68.494
1656.9000, -69.042
1657.0000, -68.865
1657.1000, -71.216
1657.2000, -68.356
1657.3000, -68.978
1657.4000, -69.417
1657.5000, -69.059
1657.6000, -68.888
1657.7000, -68.635
1657.8000, -69.050
1657.9000, -68.971
1658.0000, -67.418
1658.1000, -68.149
1658.2000, -69.101
1658.3000, -70.493
1658.4000, -69.264
1658.5000, -69.045
1658.6000, -68.927
1658.7000, -69.452
1658.8000, -68.284
1658.9000, -68.151
1659.0000, -68.885
1659.1000, -68.087
1659.2000, -69.479
1659.3000, -68.789
1659.4000, -67.523
1659.5000, -68.258
1659.6000, -68.995
1659.7000, -69.285
1659.8000, -69.628
1659.9000, -67.457
1660.0000, -68.313
1660.1000, -68.038
1660.2000, -69.464
1660.3000, -68.125
1660.4000, -70.265
1660.5000, -67.457
1660.6000, -69.215
1660.7000, -69.293
1660.8000, -67.937
1660.9000, -70.564
1661.0000, -68.165
1661.1000, -66.969
1661.2000, -68.976
1661.3000, -68.137
1661.4000, -68.865
1661.5000, -68.829
1661.6000, -68.894
1661.7000, -67.493
1661.8000, -68.993
1661.9000, -67.765
1662.0000, -67.812
1662.1000, -68.902
1662.2000, -67.416
1662.3000, -70.014
1662.4000, -67.821
1662.5000, -68.024
1662.6000, -68.116
1662.7000, -68.016
1662.8000, -67.583
1662.9000, -69.093
1663.0000, -67.717
1663.1000, -66.089
1663.2000, -69.091
1663.3000, -67.048
1663.4000, -68.579
1663.5000, -68.856
1663.6000, -67.740
1663.7000, -68.178
1663.8000, -67.576
1663.9000, -67.708
1664.0000, -69.215
1664.1000, -67.290
1664.2000, -67.925
1664.3000, -67.866
1664.4000, -66.671
1664.5000, -68.505
1664.6000, -67.329
1664.7000, -68.320
1664.8000, -67.961
1664.9000, -67.555
1665.0000, -66.960
1665.1000, -69.180
1665.2000, -67.361
1665.3000, -66.969
1665.4000, -67.898
1665.5000, -66.964
1665.6000, -68.810
1665.7000, -67.421
1665.8000, -66.852
1665.9000, -69.291
1666.0000, -67.518
1666.1000, -66.946
1666.2000, -66.985
1666.3000, -67.483
1666.4000, -68.175
1666.5000, -66.330
1666.6000, -67.128
1666.7000, -67.055
1666.8000, -66.930
1666.9000, -67.318
1667.0000, -67.265
1667.1000, -67.211
1667.2000, -67.519
1667.3000, -65.597
1667.4000, -67.423
1667.5000, -66.749
1667.6000, -65.960
1667.7000, -69.097
1667.8000, -67.300
1667.9000, -67.168
1668.0000, -66.774
1668.1000, -66.418
1668.2000, -68.207
1668.3000, -65.274
1668.4000, -66.033
1668.5000, -69.289
1668.6000, -66.959
1668.7000, -66.895
1668.8000, -67.078
1668.9000, -65.970
1669.0000, -65.609
1669.1000, -67.190
1669.2000, -67.057
1669.3000, -65.959
1669.4000, -66.853
1669.5000, -66.063
1669.6000, -67.363
1669.7000, -65.772
1669.8000, -66.585
1669.9000, -66.983
1670.0000, -64.637
1670.1000, -65.491
1670.2000, -67.028
1670.3000, -67.175
1670.4000, -65.252
1670.5000, -66.347
1670.6000, -65.808
1670.7000, -67.615
1670.8000, -67.585
1670.9000, -67.748
1671.0000, -65.373
1671.1000, -68.751
1671.2000, -65.652
1671.3000, -66.504
1671.4000, -65.715
1671.5000, -65.449
1671.6000, -64.751
1671.7000, -68.855
1671.8000, -65.671
1671.9000, -66.371
1672.0000, -64.308
1672.1000, -67.367
1672.2000, -66.405
1672.3000, -65.995
1672.4000, -64.596
1672.5000, -66.261
1672.6000, -65.612
1672.7000, -65.146
1672.8000, -67.261
1672.9000, -66.118
1673.0000, -65.021
1673.1000, -64.630
1673.2000, -65.785
1673.3000, -67.013
1673.4000, -64.642
1673.5000, -66.291
1673.6000, -64.736
1673.7000, -66.713
1673.8000, -64.969
1673.9000, -65.297
1674.0000, -65.471
1674.1000, -65.131
1674.2000, -65.201
1674.3000, -63.846
1674.4000, -64.459
1674.5000, -63.075
1674.6000, -62.659
1674.7000, -63.813
1674.8000, -67.618
1674.9000, -64.439
1675.0000, -65.182
1675.1000, -65.043
1675.2000, -67.203
1675.3000, -66.109
1675.4000, -65.086
1675.5000, -65.487
1675.6000, -64.496
1675.7000, -65.465
1675.8000, -65.906
1675.9000, -63.915
1676.0000, -65.664
1676.1000, -64.988
1676.2000, -65.545
1676.3000, -65.233
1676.4000, -64.666
1676.5000, -64.877
1676.6000, -65.403
1676.7000, -64.783
1676.8000, -64.432
1676.9000, -64.284
1677.0000, -65.229
1677.1000, -64.500
1677.2000, -64.823
1677.3000, -64.713
1677.4000, -64.913
1677.5000, -63.625
1677.6000, -65.312
1677.7000, -65.477
1677.8000, -65.216
1677.9000, -64.418
1678.0000, -65.034
1678.1000, -64.871
1678.2000, -64.314
1678.3000, -65.745
1678.4000, -63.634
1678.5000, -66.902
1678.6000, -64.363
1678.7000, -63.154
1678.8000, -65.686
1678.9000, -63.950
1679.0000, -63.605
1679.1000, -65.244
1679.2000, -63.983
1679.3000, -62.239
1679.4000, -68.890
1679.5000, -63.516
1679.6000, -65.487
1679.7000, -63.408
1679.8000, -63.282
1679.9000, -63.465
1680.0000, -65.320
1680.1000, -63.728
1680.2000, -66.029
1680.3000, -63.034
1680.4000, -63.599
1680.5000, -63.744
1680.6000, -63.313
1680.7000, -63.634
1680.8000, -64.482
1680.9000, -64.126
1681.0000, -64.242
1681.1000, -63.467
1681.2000, -64.664
1681.3000, -64.140
1681.4000, -64.073
1681.5000, -62.771
1681.6000, -63.724
1681.7000, -63.874
1681.8000, -64.971
1681.9000, -63.181
1682.0000, -63.554
1682.1000, -63.921
1682.2000, -63.429
1682.3000, -62.470
1682.4000, -63.737
1682.5000, -64.088
1682.6000, -64.248
1682.7000, -62.578
1682.8000, -63.290
1682.9000, -64.333
1683.0000, -63.583
1683.1000, -63.193
1683.2000, -64.954
1683.3000, -63.589
1683.4000, -62.169
1683.5000, -64.318
1683.6000, -65.557
1683.7000, -62.209
1683.8000, -62.629
1683.9000, -63.381
1684.0000, -64.086
1684.1000, -63.330
1684.2000, -62.860
1684.3000, -63.595
1684.4000, -64.167
1684.5000, -62.659
1684.6000, -61.843
1684.7000, -64.636
1684.8000, -62.538
1684.9000, -62.649
1685.0000, -62.877
1685.1000, -62.624
1685.2000, -61.690
1685.3000, -64.873
1685.4000, -62.597
1685.5000, -63.025
1685.6000, -62.299
1685.7000, -62.658
1685.8000, -62.514
1685.9000, -61.898
1686.0000, -62.992
1686.1000, -61.879
1686.2000, -64.834
1686.3000, -62.246
1686.4000, -62.810
1686.5000, -62.348
1686.6000, -63.161
1686.7000, -62.449
1686.8000, -62.753
1686.9000, -62.454
1687.0000, -62.481
1687.1000, -62.093
1687.2000, -61.780
1687.3000, -63.146
1687.4000, -62.408
1687.5000, -62.004
1687.6000, -64.275
1687.7000, -62.500
1687.8000, -62.094
1687.9000, -61.863
1688.0000, -63.635
1688.1000, -61.583
1688.2000, -61.669
1688.3000, -61.990
1688.4000, -62.362
1688.5000, -63.339
1688.6000, -61.281
1688.7000, -60.614
1688.8000, -64.381
1688.9000, -62.367
1689.0000, -60.770
1689.1000, -61.893
1689.2000, -63.142
1689.3000, -61.752
1689.4000, -62.972
1689.5000, -61.489
1689.6000, -63.101
1689.7000, -61.564
1689.8000, -61.168
1689.9000, -60.654
1690.0000, -62.500
1690.1000, -62.600
1690.2000, -62.641
1690.3000, -61.184
1690.4000, -60.969
1690.5000, -61.664
1690.6000, -61.484
1690.7000, -61.402
1690.8000, -61.670
1690.9000, -60.835
1691.0000, -61.183
1691.1000, -61.374
1691.2000, -61.030
1691.3000, -60.330
1691.4000, -61.923
1691.5000, -61.863
1691.6000, -60.416
1691.7000, -61.377
1691.8000, -62.450
1691.9000, -61.212
1692.0000, -60.872
1692.1000, -60.680
1692.2000, -60.428
1692.3000, -60.646
1692.4000, -62.317
1692.5000, -61.189
1692.6000, -60.847
1692.7000, -61.746
1692.8000, -60.376
1692.9000, -60.257
1693.0000, -61.199
1693.1000, -59.051
1693.2000, -62.463
1693.3000, -60.931
1693.4000, -61.076
1693.5000, -60.798
1693.6000, -60.609
1693.7000, -60.388
1693.8000, -60.811
1693.9000, -60.381
1694.0000, -59.933
1694.1000, -62.695
1694.2000, -60.360
1694.3000, -59.505
1694.4000, -60.844
1694.5000, -63.142
1694.6000, -59.257
1694.7000, -60.328
1694.8000, -60.561
1694.9000, -60.582
1695.0000, -61.229
1695.1000, -61.191
1695.2000, -60.283
1695.3000, -59.658
1695.4000, -60.739
1695.5000, -59.951
1695.6000, -60.382
1695.7000, -59.412
1695.8000, -59.045
1695.9000, -60.458
1696.0000, -60.820
1696.1000, -59.190
1696.2000, -59.199
1696.3000, -60.692
1696.4000, -59.806
1696.5000, -59.220
1696.6000, -60.347
1696.7000, -58.531
1696.8000, -59.235
1696.9000, -61.750
1697.0000, -60.736
1697.1000, -58.627
1697.2000, -59.765
1697.3000, -58.712
1697.4000, -59.014
1697.5000, -63.514
1697.6000, -58.059
1697.7000, -59.462
1697.8000, -63.592
1697.9000, -59.364
1698.0000, -59.262
1698.1000, -59.629
1698.2000, -60.928
1698.3000, -58.963
1698.4000, -58.080
1698.5000, -60.446
1698.6000, -59.369
1698.7000, -60.801
1698.8000, -59.502
1698.9000, -59.337
1699.0000, -58.937
1699.1000, -58.830
1699.2000, -58.332
1699.3000, -59.240
1699.4000, -58.254
1699.5000, -58.049
1699.6000, -59.263
1699.7000, -58.945
1699.8000, -58.722
1699.9000, -60.401
1700.0000, -58.348
