70BCSV 	
// AQ6370B OPTICAL SPECTRUM ANALYZER //                 
25
"CTRWL",1300.000000
"SPAN", 800.000000
"START WL", 900.000000
"STOP WL",1700.000000
"WLFREQ", 0
"REFL",-17.2
"LSCL",10.0
"RESLN",0.500
"AVG",   1
"SMPLAUTO",      1
"SMPL",       8001
"SMPLINTVL",0.1000
"HIGH1"
"MEAS"
"LSUNT",0
"NMSKH","OFF"
"RESCOR",0
"RESPARM", 9740
"FREQPARM", 9740






"[TRACE DATA]"
 900.0000, -75.479
 900.1000, -74.419
 900.2000, -74.090
 900.3000, -72.410
 900.4000, -80.123
 900.5000, -75.009
 900.6000, -77.428
 900.7000, -71.785
 900.8000, -79.555
 900.9000, -71.669
 901.0000, -70.500
 901.1000,-210.000
 901.2000, -71.139
 901.3000, -71.338
 901.4000, -72.400
 901.5000, -71.745
 901.6000, -77.260
 901.7000, -75.473
 901.8000, -69.925
 901.9000, -74.187
 902.0000, -71.414
 902.1000, -71.698
 902.2000, -73.586
 902.3000, -72.649
 902.4000, -72.647
 902.5000, -72.421
 902.6000, -71.294
 902.7000, -73.347
 902.8000, -72.638
 902.9000, -76.617
 903.0000, -72.747
 903.1000, -76.467
 903.2000, -70.816
 903.3000, -73.616
 903.4000, -74.151
 903.5000, -74.299
 903.6000, -75.568
 903.7000, -71.604
 903.8000, -70.991
 903.9000, -73.208
 904.0000, -76.458
 904.1000,-210.000
 904.2000, -73.619
 904.3000, -70.957
 904.4000, -71.092
 904.5000, -69.412
 904.6000, -85.004
 904.7000, -72.836
 904.8000, -75.074
 904.9000, -72.782
 905.0000,-210.000
 905.1000, -71.302
 905.2000, -72.109
 905.3000, -78.725
 905.4000, -72.742
 905.5000, -76.264
 905.6000, -73.834
 905.7000, -71.406
 905.8000, -76.531
 905.9000, -76.537
 906.0000, -72.106
 906.1000, -78.499
 906.2000, -72.293
 906.3000, -73.259
 906.4000, -74.038
 906.5000, -72.571
 906.6000, -83.538
 906.7000, -70.782
 906.8000, -72.864
 906.9000, -74.182
 907.0000, -76.465
 907.1000, -72.776
 907.2000, -73.340
 907.3000, -69.834
 907.4000, -83.279
 907.5000,-210.000
 907.6000, -73.238
 907.7000, -72.599
 907.8000, -72.422
 907.9000, -74.955
 908.0000, -77.166
 908.1000, -71.753
 908.2000, -76.213
 908.3000, -74.833
 908.4000, -72.048
 908.5000, -74.966
 908.6000, -75.153
 908.7000, -75.368
 908.8000, -73.611
 908.9000, -75.561
 909.0000, -84.505
 909.1000, -73.233
 909.2000, -71.784
 909.3000, -73.078
 909.4000,-210.000
 909.5000, -76.561
 909.6000, -71.131
 909.7000, -78.668
 909.8000, -74.186
 909.9000, -75.347
 910.0000, -73.113
 910.1000, -72.708
 910.2000, -78.651
 910.3000, -73.731
 910.4000, -76.701
 910.5000, -78.719
 910.6000, -74.540
 910.7000, -73.889
 910.8000, -77.429
 910.9000, -72.155
 911.0000, -73.125
 911.1000, -73.584
 911.2000, -76.201
 911.3000, -71.529
 911.4000,-210.000
 911.5000, -75.861
 911.6000, -72.682
 911.7000, -72.268
 911.8000, -73.028
 911.9000, -77.662
 912.0000, -72.819
 912.1000, -84.714
 912.2000, -73.810
 912.3000, -74.158
 912.4000, -71.758
 912.5000,-210.000
 912.6000, -72.938
 912.7000, -71.803
 912.8000, -90.360
 912.9000, -71.929
 913.0000, -73.429
 913.1000,-210.000
 913.2000, -75.053
 913.3000, -73.149
 913.4000, -72.823
 913.5000,-210.000
 913.6000, -78.218
 913.7000, -72.583
 913.8000, -78.366
 913.9000, -74.491
 914.0000, -70.895
 914.1000, -82.224
 914.2000, -74.428
 914.3000, -77.090
 914.4000, -72.406
 914.5000, -77.447
 914.6000, -75.907
 914.7000, -77.556
 914.8000, -73.717
 914.9000, -76.669
 915.0000, -75.787
 915.1000, -72.915
 915.2000, -70.838
 915.3000, -77.781
 915.4000, -76.814
 915.5000,-210.000
 915.6000, -76.031
 915.7000, -73.606
 915.8000, -78.611
 915.9000, -73.175
 916.0000, -74.129
 916.1000, -78.572
 916.2000, -74.098
 916.3000, -76.960
 916.4000, -73.739
 916.5000, -76.204
 916.6000, -79.332
 916.7000, -72.396
 916.8000, -74.664
 916.9000, -80.558
 917.0000, -74.610
 917.1000, -80.260
 917.2000, -75.473
 917.3000, -74.732
 917.4000, -75.102
 917.5000, -71.427
 917.6000, -80.484
 917.7000, -75.843
 917.8000,-210.000
 917.9000, -73.806
 918.0000,-210.000
 918.1000, -74.144
 918.2000, -73.345
 918.3000, -84.117
 918.4000, -75.301
 918.5000, -74.030
 918.6000, -81.565
 918.7000, -73.432
 918.8000, -85.563
 918.9000, -72.899
 919.0000, -80.702
 919.1000, -77.863
 919.2000, -76.315
 919.3000, -76.527
 919.4000, -76.453
 919.5000, -79.249
 919.6000, -75.268
 919.7000, -77.158
 919.8000, -75.599
 919.9000, -76.369
 920.0000, -77.642
 920.1000, -78.804
 920.2000, -75.436
 920.3000, -73.813
 920.4000, -78.222
 920.5000, -73.734
 920.6000, -79.873
 920.7000,-210.000
 920.8000, -76.581
 920.9000, -75.591
 921.0000, -74.647
 921.1000, -73.946
 921.2000, -76.297
 921.3000, -75.469
 921.4000, -82.006
 921.5000, -82.388
 921.6000, -72.982
 921.7000, -76.207
 921.8000, -73.671
 921.9000,-210.000
 922.0000, -75.186
 922.1000, -74.808
 922.2000, -76.012
 922.3000, -74.398
 922.4000, -78.014
 922.5000, -75.762
 922.6000, -77.374
 922.7000, -85.121
 922.8000, -75.615
 922.9000, -74.428
 923.0000, -82.846
 923.1000, -73.882
 923.2000, -77.285
 923.3000, -75.249
 923.4000, -76.757
 923.5000,-210.000
 923.6000, -76.395
 923.7000, -75.076
 923.8000, -78.551
 923.9000,-210.000
 924.0000, -76.864
 924.1000, -78.886
 924.2000, -74.582
 924.3000, -75.697
 924.4000, -78.343
 924.5000, -73.687
 924.6000, -78.478
 924.7000, -78.996
 924.8000, -75.991
 924.9000,-210.000
 925.0000, -72.982
 925.1000, -74.847
 925.2000, -80.675
 925.3000,-210.000
 925.4000, -77.390
 925.5000, -76.424
 925.6000, -76.983
 925.7000, -77.662
 925.8000, -76.629
 925.9000, -81.172
 926.0000, -76.727
 926.1000, -77.623
 926.2000, -77.132
 926.3000, -79.335
 926.4000, -76.925
 926.5000, -74.814
 926.6000,-210.000
 926.7000, -75.610
 926.8000, -77.479
 926.9000, -80.550
 927.0000, -79.903
 927.1000, -74.495
 927.2000, -74.850
 927.3000, -93.003
 927.4000, -76.515
 927.5000, -87.797
 927.6000, -74.855
 927.7000, -76.020
 927.8000, -76.399
 927.9000, -78.822
 928.0000, -77.691
 928.1000, -75.632
 928.2000, -82.815
 928.3000, -75.850
 928.4000, -79.838
 928.5000, -74.615
 928.6000, -74.469
 928.7000,-210.000
 928.8000, -78.307
 928.9000, -84.176
 929.0000, -76.297
 929.1000, -74.902
 929.2000, -74.785
 929.3000, -78.399
 929.4000, -80.309
 929.5000, -80.106
 929.6000, -79.542
 929.7000, -76.217
 929.8000,-210.000
 929.9000, -75.629
 930.0000, -76.677
 930.1000, -82.730
 930.2000, -74.396
 930.3000, -77.065
 930.4000, -76.694
 930.5000, -79.949
 930.6000, -86.917
 930.7000, -75.864
 930.8000, -75.863
 930.9000, -76.441
 931.0000, -79.342
 931.1000, -80.447
 931.2000, -76.198
 931.3000,-210.000
 931.4000, -72.444
 931.5000, -78.772
 931.6000,-210.000
 931.7000,-210.000
 931.8000, -78.265
 931.9000, -75.653
 932.0000, -76.255
 932.1000, -76.174
 932.2000, -81.975
 932.3000, -76.344
 932.4000, -76.613
 932.5000, -76.779
 932.6000,-210.000
 932.7000,-210.000
 932.8000, -81.748
 932.9000, -80.747
 933.0000, -79.133
 933.1000, -77.203
 933.2000, -79.069
 933.3000,-210.000
 933.4000, -74.947
 933.5000, -75.936
 933.6000, -87.051
 933.7000, -78.147
 933.8000, -73.904
 933.9000, -80.573
 934.0000, -74.662
 934.1000,-210.000
 934.2000, -76.225
 934.3000,-107.206
 934.4000, -79.308
 934.5000, -76.699
 934.6000, -82.335
 934.7000, -73.092
 934.8000,-210.000
 934.9000, -97.213
 935.0000, -75.924
 935.1000, -81.165
 935.2000, -77.072
 935.3000, -76.175
 935.4000, -81.986
 935.5000, -85.325
 935.6000, -74.176
 935.7000,-210.000
 935.8000,-210.000
 935.9000, -76.401
 936.0000, -81.821
 936.1000, -79.947
 936.2000, -77.402
 936.3000, -80.605
 936.4000, -77.190
 936.5000, -77.573
 936.6000, -80.933
 936.7000, -81.191
 936.8000, -74.979
 936.9000, -78.091
 937.0000, -79.938
 937.1000, -88.018
 937.2000,-210.000
 937.3000, -78.366
 937.4000, -77.041
 937.5000, -77.271
 937.6000, -78.752
 937.7000, -78.821
 937.8000, -77.928
 937.9000, -78.085
 938.0000, -77.448
 938.1000, -74.670
 938.2000, -77.034
 938.3000, -74.988
 938.4000, -75.321
 938.5000, -73.702
 938.6000, -75.026
 938.7000, -75.745
 938.8000, -75.059
 938.9000, -75.479
 939.0000, -74.688
 939.1000, -74.440
 939.2000, -77.661
 939.3000, -76.701
 939.4000, -76.584
 939.5000, -78.104
 939.6000, -75.978
 939.7000, -76.395
 939.8000, -77.031
 939.9000, -80.501
 940.0000, -81.535
 940.1000, -78.195
 940.2000, -76.741
 940.3000, -75.969
 940.4000, -88.699
 940.5000, -79.882
 940.6000, -75.528
 940.7000,-210.000
 940.8000, -78.443
 940.9000, -77.591
 941.0000, -80.255
 941.1000, -81.286
 941.2000, -77.998
 941.3000,-210.000
 941.4000, -77.854
 941.5000, -76.491
 941.6000, -76.848
 941.7000, -93.263
 941.8000, -84.493
 941.9000, -76.218
 942.0000, -76.253
 942.1000, -83.179
 942.2000, -77.812
 942.3000, -78.842
 942.4000, -77.077
 942.5000, -76.265
 942.6000,-210.000
 942.7000, -77.440
 942.8000, -81.110
 942.9000, -76.799
 943.0000, -87.921
 943.1000, -81.491
 943.2000, -81.354
 943.3000, -81.895
 943.4000, -79.190
 943.5000, -83.356
 943.6000, -78.297
 943.7000, -75.592
 943.8000, -76.000
 943.9000,-210.000
 944.0000, -81.105
 944.1000, -79.431
 944.2000, -76.823
 944.3000,-210.000
 944.4000, -76.099
 944.5000, -84.775
 944.6000, -82.910
 944.7000, -76.422
 944.8000, -78.212
 944.9000, -75.134
 945.0000, -79.235
 945.1000, -75.062
 945.2000, -76.086
 945.3000, -75.911
 945.4000, -76.899
 945.5000, -72.674
 945.6000, -71.959
 945.7000, -77.359
 945.8000, -75.925
 945.9000, -71.238
 946.0000, -72.785
 946.1000, -71.168
 946.2000, -71.789
 946.3000, -72.015
 946.4000, -72.468
 946.5000, -72.246
 946.6000, -72.789
 946.7000, -75.868
 946.8000, -73.723
 946.9000, -74.469
 947.0000, -76.736
 947.1000, -74.738
 947.2000, -77.559
 947.3000, -76.090
 947.4000, -77.709
 947.5000, -79.980
 947.6000, -75.884
 947.7000, -78.797
 947.8000, -74.316
 947.9000, -76.561
 948.0000, -85.638
 948.1000, -77.103
 948.2000, -77.683
 948.3000,-210.000
 948.4000, -75.450
 948.5000, -80.725
 948.6000, -79.765
 948.7000,-210.000
 948.8000, -76.635
 948.9000, -77.223
 949.0000, -85.103
 949.1000, -78.911
 949.2000, -76.658
 949.3000, -85.627
 949.4000, -77.852
 949.5000, -77.975
 949.6000, -78.508
 949.7000,-210.000
 949.8000, -77.017
 949.9000, -82.657
 950.0000, -78.430
 950.1000, -78.858
 950.2000, -84.984
 950.3000, -77.493
 950.4000, -77.245
 950.5000, -83.702
 950.6000, -77.410
 950.7000, -84.134
 950.8000, -80.318
 950.9000, -79.234
 951.0000, -83.573
 951.1000, -79.725
 951.2000, -77.933
 951.3000,-210.000
 951.4000, -78.020
 951.5000, -84.377
 951.6000, -76.247
 951.7000, -81.006
 951.8000, -75.937
 951.9000,-210.000
 952.0000, -79.461
 952.1000, -77.230
 952.2000, -78.612
 952.3000, -79.100
 952.4000, -77.119
 952.5000, -76.964
 952.6000, -91.325
 952.7000, -79.589
 952.8000, -79.138
 952.9000, -82.267
 953.0000, -83.016
 953.1000, -78.364
 953.2000, -80.208
 953.3000, -79.056
 953.4000, -84.811
 953.5000, -81.362
 953.6000, -79.341
 953.7000, -78.180
 953.8000, -78.829
 953.9000,-210.000
 954.0000, -81.664
 954.1000, -76.121
 954.2000, -81.456
 954.3000, -82.386
 954.4000, -77.205
 954.5000, -79.602
 954.6000, -75.960
 954.7000, -84.210
 954.8000, -77.392
 954.9000, -91.618
 955.0000, -77.096
 955.1000, -83.407
 955.2000,-210.000
 955.3000, -77.637
 955.4000, -83.919
 955.5000, -79.515
 955.6000, -80.320
 955.7000, -79.546
 955.8000, -82.027
 955.9000, -76.960
 956.0000, -77.772
 956.1000, -85.615
 956.2000, -80.569
 956.3000, -79.498
 956.4000, -77.789
 956.5000, -79.730
 956.6000, -79.784
 956.7000, -80.388
 956.8000, -77.993
 956.9000, -79.071
 957.0000, -82.408
 957.1000, -80.960
 957.2000, -80.798
 957.3000, -78.595
 957.4000, -78.026
 957.5000, -77.439
 957.6000, -85.303
 957.7000,-210.000
 957.8000, -79.916
 957.9000, -78.074
 958.0000, -78.078
 958.1000,-210.000
 958.2000, -82.157
 958.3000,-210.000
 958.4000, -80.012
 958.5000, -83.290
 958.6000, -79.559
 958.7000, -88.787
 958.8000, -81.116
 958.9000, -79.127
 959.0000, -80.995
 959.1000, -81.719
 959.2000, -78.683
 959.3000, -77.202
 959.4000, -78.760
 959.5000, -81.733
 959.6000, -79.243
 959.7000, -81.085
 959.8000, -82.447
 959.9000, -76.904
 960.0000, -83.666
 960.1000,-210.000
 960.2000, -78.422
 960.3000, -79.703
 960.4000, -81.973
 960.5000, -81.452
 960.6000, -76.313
 960.7000, -78.266
 960.8000, -84.487
 960.9000, -81.033
 961.0000, -86.163
 961.1000, -85.374
 961.2000, -80.789
 961.3000, -83.658
 961.4000, -82.979
 961.5000, -78.882
 961.6000, -87.487
 961.7000, -78.589
 961.8000, -81.547
 961.9000, -79.174
 962.0000, -81.035
 962.1000, -83.788
 962.2000, -80.484
 962.3000, -81.137
 962.4000, -86.037
 962.5000, -85.582
 962.6000, -83.972
 962.7000, -84.986
 962.8000, -77.474
 962.9000, -80.533
 963.0000, -77.930
 963.1000, -79.222
 963.2000, -82.757
 963.3000, -76.654
 963.4000, -80.618
 963.5000, -80.603
 963.6000,-210.000
 963.7000, -79.426
 963.8000, -79.860
 963.9000, -77.555
 964.0000, -87.839
 964.1000, -79.033
 964.2000, -80.569
 964.3000,-210.000
 964.4000, -80.204
 964.5000, -81.159
 964.6000, -88.802
 964.7000, -82.825
 964.8000, -82.481
 964.9000, -78.538
 965.0000, -85.723
 965.1000, -78.156
 965.2000, -84.713
 965.3000, -83.208
 965.4000, -82.067
 965.5000, -77.872
 965.6000, -80.889
 965.7000, -81.555
 965.8000, -81.321
 965.9000, -80.183
 966.0000, -78.840
 966.1000,-210.000
 966.2000, -79.878
 966.3000, -81.789
 966.4000, -78.992
 966.5000, -80.603
 966.6000, -87.810
 966.7000, -81.280
 966.8000, -81.035
 966.9000, -81.273
 967.0000, -78.761
 967.1000, -78.306
 967.2000,-210.000
 967.3000, -83.204
 967.4000, -79.585
 967.5000, -81.066
 967.6000, -78.019
 967.7000, -81.392
 967.8000, -82.307
 967.9000, -79.670
 968.0000,-210.000
 968.1000, -79.421
 968.2000, -79.062
 968.3000, -83.216
 968.4000, -77.150
 968.5000, -83.783
 968.6000, -91.762
 968.7000,-210.000
 968.8000, -78.056
 968.9000, -79.202
 969.0000, -84.348
 969.1000, -81.614
 969.2000, -83.430
 969.3000, -78.418
 969.4000, -86.280
 969.5000, -79.767
 969.6000,-210.000
 969.7000, -77.327
 969.8000, -76.191
 969.9000,-210.000
 970.0000,-210.000
 970.1000, -79.258
 970.2000, -77.686
 970.3000, -79.636
 970.4000, -78.157
 970.5000,-210.000
 970.6000,-210.000
 970.7000,-210.000
 970.8000, -77.613
 970.9000, -77.475
 971.0000,-210.000
 971.1000, -80.020
 971.2000, -77.085
 971.3000, -78.809
 971.4000,-210.000
 971.5000, -84.923
 971.6000, -81.915
 971.7000, -77.831
 971.8000, -82.478
 971.9000,-210.000
 972.0000, -77.081
 972.1000,-210.000
 972.2000, -83.099
 972.3000, -78.665
 972.4000, -78.964
 972.5000, -78.397
 972.6000,-210.000
 972.7000, -77.536
 972.8000, -82.692
 972.9000, -81.362
 973.0000, -82.009
 973.1000, -92.475
 973.2000, -86.785
 973.3000,-210.000
 973.4000, -83.636
 973.5000, -77.683
 973.6000, -86.829
 973.7000, -81.095
 973.8000, -77.836
 973.9000, -83.152
 974.0000, -79.809
 974.1000, -78.067
 974.2000,-210.000
 974.3000, -81.863
 974.4000, -80.263
 974.5000, -80.662
 974.6000, -80.977
 974.7000, -79.279
 974.8000, -85.486
 974.9000, -80.321
 975.0000, -78.603
 975.1000, -79.802
 975.2000, -86.500
 975.3000, -80.018
 975.4000, -81.623
 975.5000, -76.555
 975.6000, -81.299
 975.7000, -76.276
 975.8000, -88.086
 975.9000,-210.000
 976.0000, -79.881
 976.1000, -80.623
 976.2000, -83.759
 976.3000, -81.318
 976.4000, -78.956
 976.5000, -78.644
 976.6000, -78.796
 976.7000, -81.724
 976.8000,-210.000
 976.9000,-210.000
 977.0000, -86.506
 977.1000, -81.851
 977.2000, -82.055
 977.3000, -80.136
 977.4000, -83.846
 977.5000, -81.174
 977.6000, -77.340
 977.7000, -82.570
 977.8000, -80.041
 977.9000, -89.487
 978.0000, -83.579
 978.1000, -84.070
 978.2000, -80.435
 978.3000, -80.491
 978.4000, -81.672
 978.5000, -80.754
 978.6000, -81.341
 978.7000, -76.475
 978.8000,-210.000
 978.9000, -88.158
 979.0000, -76.575
 979.1000,-210.000
 979.2000, -77.269
 979.3000, -83.967
 979.4000,-210.000
 979.5000, -81.534
 979.6000, -79.028
 979.7000, -79.387
 979.8000, -85.503
 979.9000, -82.453
 980.0000, -79.250
 980.1000, -79.388
 980.2000,-210.000
 980.3000, -79.045
 980.4000, -78.371
 980.5000,-210.000
 980.6000, -75.995
 980.7000, -80.255
 980.8000,-210.000
 980.9000, -79.839
 981.0000, -81.027
 981.1000, -81.014
 981.2000, -81.978
 981.3000, -85.002
 981.4000, -81.231
 981.5000, -78.313
 981.6000, -78.958
 981.7000, -79.004
 981.8000,-103.580
 981.9000, -80.240
 982.0000, -90.763
 982.1000, -80.087
 982.2000, -80.986
 982.3000, -83.036
 982.4000, -82.254
 982.5000, -78.716
 982.6000, -82.833
 982.7000, -78.559
 982.8000,-210.000
 982.9000, -79.048
 983.0000, -80.697
 983.1000,-210.000
 983.2000, -76.868
 983.3000, -87.896
 983.4000, -78.458
 983.5000,-210.000
 983.6000, -82.344
 983.7000, -85.168
 983.8000, -88.211
 983.9000, -80.678
 984.0000, -77.387
 984.1000, -78.882
 984.2000, -93.767
 984.3000,-210.000
 984.4000, -82.202
 984.5000, -83.116
 984.6000, -79.552
 984.7000, -82.549
 984.8000, -80.963
 984.9000, -80.438
 985.0000, -81.209
 985.1000, -77.403
 985.2000, -82.009
 985.3000,-210.000
 985.4000, -80.142
 985.5000, -86.828
 985.6000, -79.912
 985.7000, -80.777
 985.8000, -86.677
 985.9000, -78.555
 986.0000, -88.783
 986.1000, -78.124
 986.2000, -77.376
 986.3000,-210.000
 986.4000, -81.815
 986.5000, -77.967
 986.6000, -79.729
 986.7000,-210.000
 986.8000,-210.000
 986.9000, -80.091
 987.0000, -78.193
 987.1000, -82.576
 987.2000,-210.000
 987.3000, -81.003
 987.4000, -81.032
 987.5000, -82.002
 987.6000, -78.804
 987.7000, -84.631
 987.8000, -80.864
 987.9000, -79.892
 988.0000, -79.714
 988.1000,-210.000
 988.2000, -78.636
 988.3000, -84.381
 988.4000, -79.247
 988.5000, -83.244
 988.6000, -83.138
 988.7000, -80.439
 988.8000, -83.333
 988.9000, -79.038
 989.0000, -80.988
 989.1000, -81.602
 989.2000, -79.903
 989.3000, -84.902
 989.4000,-210.000
 989.5000, -78.446
 989.6000, -80.397
 989.7000, -80.573
 989.8000, -88.691
 989.9000, -80.345
 990.0000, -84.592
 990.1000, -80.737
 990.2000, -84.002
 990.3000, -82.745
 990.4000, -79.445
 990.5000, -89.983
 990.6000, -78.551
 990.7000, -84.284
 990.8000, -80.729
 990.9000, -82.778
 991.0000, -79.525
 991.1000, -83.546
 991.2000, -80.848
 991.3000, -84.743
 991.4000, -82.376
 991.5000, -79.712
 991.6000, -81.945
 991.7000, -82.726
 991.8000, -84.764
 991.9000, -83.776
 992.0000, -79.780
 992.1000, -85.241
 992.2000, -79.671
 992.3000, -78.685
 992.4000, -81.938
 992.5000, -81.004
 992.6000, -77.595
 992.7000, -81.284
 992.8000, -83.240
 992.9000, -81.356
 993.0000, -80.394
 993.1000, -79.792
 993.2000, -84.025
 993.3000, -80.915
 993.4000, -77.785
 993.5000, -89.908
 993.6000,-210.000
 993.7000,-210.000
 993.8000, -80.578
 993.9000, -77.097
 994.0000, -78.023
 994.1000, -88.877
 994.2000,-210.000
 994.3000, -78.594
 994.4000,-210.000
 994.5000, -81.189
 994.6000, -82.614
 994.7000, -83.713
 994.8000, -81.018
 994.9000,-210.000
 995.0000, -77.527
 995.1000, -82.065
 995.2000,-210.000
 995.3000, -78.503
 995.4000, -84.374
 995.5000, -77.522
 995.6000, -81.918
 995.7000, -81.435
 995.8000, -79.730
 995.9000, -83.499
 996.0000,-210.000
 996.1000, -76.728
 996.2000,-210.000
 996.3000, -80.845
 996.4000, -78.096
 996.5000, -84.631
 996.6000, -79.976
 996.7000,-210.000
 996.8000, -84.969
 996.9000, -81.174
 997.0000, -85.356
 997.1000, -81.800
 997.2000, -78.785
 997.3000, -79.649
 997.4000, -86.670
 997.5000, -79.906
 997.6000, -84.901
 997.7000, -80.449
 997.8000, -80.013
 997.9000, -85.984
 998.0000, -79.803
 998.1000, -82.042
 998.2000, -85.976
 998.3000, -78.178
 998.4000, -86.000
 998.5000, -90.757
 998.6000, -78.539
 998.7000, -81.404
 998.8000, -80.414
 998.9000, -81.996
 999.0000, -85.327
 999.1000, -83.631
 999.2000, -80.960
 999.3000, -78.345
 999.4000, -91.226
 999.5000, -77.882
 999.6000, -87.147
 999.7000, -79.704
 999.8000, -82.666
 999.9000, -80.333
1000.0000, -77.457
1000.1000, -85.307
1000.2000, -82.819
1000.3000, -80.287
1000.4000, -92.179
1000.5000, -81.898
1000.6000, -80.684
1000.7000, -80.013
1000.8000, -82.346
1000.9000, -78.370
1001.0000, -88.753
1001.1000, -83.157
1001.2000, -87.641
1001.3000, -79.358
1001.4000, -79.609
1001.5000, -84.930
1001.6000, -79.665
1001.7000, -79.383
1001.8000, -79.622
1001.9000, -84.863
1002.0000, -84.019
1002.1000, -79.484
1002.2000, -80.672
1002.3000, -78.971
1002.4000, -96.529
1002.5000, -80.592
1002.6000, -79.344
1002.7000, -78.997
1002.8000, -80.467
1002.9000, -83.512
1003.0000, -79.438
1003.1000, -80.750
1003.2000, -81.808
1003.3000, -77.471
1003.4000, -85.997
1003.5000, -86.112
1003.6000, -77.028
1003.7000, -82.787
1003.8000,-210.000
1003.9000,-210.000
1004.0000, -79.538
1004.1000, -83.172
1004.2000, -80.537
1004.3000, -82.525
1004.4000, -79.750
1004.5000, -79.680
1004.6000, -81.676
1004.7000, -79.769
1004.8000, -83.031
1004.9000, -86.619
1005.0000, -78.430
1005.1000, -78.908
1005.2000, -82.337
1005.3000, -82.162
1005.4000, -79.503
1005.5000, -78.351
1005.6000, -80.532
1005.7000, -80.195
1005.8000, -84.005
1005.9000, -90.750
1006.0000, -94.313
1006.1000, -77.188
1006.2000,-210.000
1006.3000, -77.953
1006.4000, -77.376
1006.5000, -84.977
1006.6000, -81.779
1006.7000, -77.908
1006.8000, -85.399
1006.9000, -83.038
1007.0000, -79.708
1007.1000,-210.000
1007.2000, -80.397
1007.3000, -78.040
1007.4000, -89.984
1007.5000, -82.602
1007.6000, -87.095
1007.7000, -77.528
1007.8000, -82.489
1007.9000, -80.215
1008.0000, -79.039
1008.1000, -79.509
1008.2000, -92.498
1008.3000, -79.942
1008.4000, -85.555
1008.5000, -82.067
1008.6000, -82.776
1008.7000, -79.522
1008.8000, -81.305
1008.9000, -82.433
1009.0000, -80.119
1009.1000, -78.336
1009.2000,-210.000
1009.3000, -78.988
1009.4000, -79.750
1009.5000, -81.186
1009.6000, -80.229
1009.7000, -82.967
1009.8000, -81.725
1009.9000, -83.718
1010.0000, -82.213
1010.1000, -83.655
1010.2000, -81.821
1010.3000, -82.305
1010.4000, -79.210
1010.5000, -81.415
1010.6000, -80.647
1010.7000, -82.525
1010.8000, -81.006
1010.9000, -80.151
1011.0000, -78.313
1011.1000, -82.299
1011.2000, -80.597
1011.3000, -81.254
1011.4000, -80.340
1011.5000, -82.374
1011.6000, -80.872
1011.7000, -80.496
1011.8000, -81.294
1011.9000, -80.762
1012.0000, -79.160
1012.1000, -80.878
1012.2000, -79.653
1012.3000, -80.070
1012.4000, -81.875
1012.5000, -81.473
1012.6000, -82.922
1012.7000, -79.076
1012.8000, -81.019
1012.9000, -81.814
1013.0000, -80.929
1013.1000, -80.267
1013.2000, -81.045
1013.3000, -81.801
1013.4000, -80.989
1013.5000, -78.989
1013.6000, -79.899
1013.7000, -80.291
1013.8000, -79.131
1013.9000, -78.957
1014.0000, -80.468
1014.1000, -80.676
1014.2000, -80.927
1014.3000, -81.796
1014.4000, -80.514
1014.5000, -78.611
1014.6000, -82.939
1014.7000, -85.657
1014.8000, -82.082
1014.9000, -78.016
1015.0000, -78.002
1015.1000, -82.886
1015.2000, -78.443
1015.3000, -81.574
1015.4000, -82.932
1015.5000, -81.007
1015.6000, -78.789
1015.7000, -78.448
1015.8000, -81.810
1015.9000, -79.507
1016.0000, -81.521
1016.1000, -80.556
1016.2000, -79.205
1016.3000, -80.033
1016.4000, -80.892
1016.5000, -79.593
1016.6000, -80.029
1016.7000, -79.677
1016.8000, -80.567
1016.9000, -81.957
1017.0000, -81.054
1017.1000, -79.982
1017.2000, -79.157
1017.3000, -78.734
1017.4000, -82.783
1017.5000, -80.057
1017.6000, -79.691
1017.7000, -80.515
1017.8000, -78.013
1017.9000, -81.832
1018.0000, -78.317
1018.1000, -81.161
1018.2000, -80.638
1018.3000, -79.065
1018.4000, -79.773
1018.5000, -79.032
1018.6000, -79.002
1018.7000, -81.567
1018.8000, -81.946
1018.9000, -78.955
1019.0000, -78.507
1019.1000, -81.580
1019.2000, -78.666
1019.3000, -83.505
1019.4000, -79.667
1019.5000, -80.795
1019.6000, -78.322
1019.7000, -80.094
1019.8000, -77.724
1019.9000, -78.392
1020.0000, -80.489
1020.1000, -76.584
1020.2000,-105.047
1020.3000,-210.000
1020.4000, -87.944
1020.5000, -77.701
1020.6000, -80.114
1020.7000, -82.277
1020.8000, -81.240
1020.9000, -78.779
1021.0000, -79.963
1021.1000, -81.552
1021.2000, -80.884
1021.3000, -80.006
1021.4000, -80.090
1021.5000, -78.566
1021.6000, -80.772
1021.7000, -78.692
1021.8000, -76.408
1021.9000, -80.944
1022.0000, -79.428
1022.1000, -80.486
1022.2000, -78.928
1022.3000, -78.365
1022.4000,-210.000
1022.5000, -77.356
1022.6000, -79.101
1022.7000, -79.919
1022.8000, -78.022
1022.9000, -81.711
1023.0000,-210.000
1023.1000, -77.934
1023.2000, -81.439
1023.3000, -79.429
1023.4000, -78.212
1023.5000, -82.806
1023.6000, -79.346
1023.7000, -80.567
1023.8000, -78.908
1023.9000, -77.883
1024.0000, -80.153
1024.1000, -79.206
1024.2000, -78.779
1024.3000, -78.634
1024.4000, -76.626
1024.5000, -82.748
1024.6000, -81.443
1024.7000, -79.342
1024.8000, -78.208
1024.9000, -79.076
1025.0000, -77.780
1025.1000, -79.142
1025.2000, -78.642
1025.3000, -77.853
1025.4000, -78.771
1025.5000, -79.650
1025.6000, -79.500
1025.7000, -80.216
1025.8000, -77.876
1025.9000, -78.205
1026.0000, -80.220
1026.1000, -81.294
1026.2000, -79.613
1026.3000, -77.414
1026.4000, -81.919
1026.5000, -77.595
1026.6000, -77.524
1026.7000, -83.165
1026.8000, -78.077
1026.9000, -79.496
1027.0000, -79.184
1027.1000, -77.127
1027.2000, -78.031
1027.3000, -77.381
1027.4000, -80.086
1027.5000, -77.906
1027.6000, -79.568
1027.7000, -79.926
1027.8000, -77.673
1027.9000, -80.723
1028.0000, -78.617
1028.1000, -79.804
1028.2000, -77.945
1028.3000, -79.290
1028.4000, -76.973
1028.5000, -80.530
1028.6000, -78.471
1028.7000, -77.803
1028.8000, -79.000
1028.9000, -77.045
1029.0000, -79.710
1029.1000, -79.282
1029.2000, -76.602
1029.3000, -78.380
1029.4000, -81.021
1029.5000, -77.877
1029.6000, -81.983
1029.7000, -80.533
1029.8000, -75.985
1029.9000, -80.443
1030.0000, -77.326
1030.1000, -78.996
1030.2000, -80.960
1030.3000, -77.816
1030.4000, -80.527
1030.5000, -78.423
1030.6000, -85.646
1030.7000, -77.829
1030.8000, -79.116
1030.9000, -78.085
1031.0000, -76.286
1031.1000, -80.415
1031.2000, -78.305
1031.3000, -77.678
1031.4000, -86.798
1031.5000, -78.983
1031.6000, -78.781
1031.7000, -78.089
1031.8000, -77.576
1031.9000, -79.749
1032.0000, -80.038
1032.1000, -78.883
1032.2000, -79.148
1032.3000, -79.980
1032.4000, -81.829
1032.5000, -78.772
1032.6000, -77.812
1032.7000, -79.555
1032.8000, -81.897
1032.9000, -78.466
1033.0000, -77.823
1033.1000, -80.737
1033.2000, -80.010
1033.3000, -78.525
1033.4000, -77.960
1033.5000, -77.548
1033.6000, -79.795
1033.7000, -81.877
1033.8000, -78.400
1033.9000, -77.231
1034.0000, -80.118
1034.1000, -79.695
1034.2000, -77.542
1034.3000, -79.952
1034.4000, -79.992
1034.5000, -79.709
1034.6000, -80.627
1034.7000, -78.369
1034.8000, -80.467
1034.9000, -78.955
1035.0000, -78.227
1035.1000, -80.110
1035.2000, -77.133
1035.3000, -85.297
1035.4000, -78.201
1035.5000, -79.563
1035.6000, -78.076
1035.7000, -79.221
1035.8000, -77.908
1035.9000, -77.883
1036.0000, -78.668
1036.1000, -78.808
1036.2000, -80.955
1036.3000, -78.561
1036.4000, -79.334
1036.5000, -77.075
1036.6000, -80.034
1036.7000, -78.651
1036.8000, -77.224
1036.9000, -78.927
1037.0000, -78.986
1037.1000, -79.438
1037.2000, -80.406
1037.3000, -78.029
1037.4000, -79.945
1037.5000, -78.568
1037.6000, -81.432
1037.7000, -79.369
1037.8000, -80.525
1037.9000, -78.782
1038.0000, -78.060
1038.1000, -80.676
1038.2000, -78.529
1038.3000, -77.672
1038.4000, -80.198
1038.5000, -80.709
1038.6000, -78.576
1038.7000, -81.026
1038.8000, -78.703
1038.9000, -79.697
1039.0000, -78.547
1039.1000, -78.275
1039.2000, -78.585
1039.3000, -79.191
1039.4000, -79.707
1039.5000, -78.964
1039.6000, -80.900
1039.7000, -78.946
1039.8000, -78.183
1039.9000, -78.523
1040.0000, -78.883
1040.1000, -79.800
1040.2000, -76.843
1040.3000, -80.016
1040.4000, -79.068
1040.5000, -80.640
1040.6000, -80.108
1040.7000, -83.364
1040.8000, -77.185
1040.9000, -77.230
1041.0000, -79.146
1041.1000, -83.714
1041.2000, -77.722
1041.3000, -77.898
1041.4000, -79.235
1041.5000, -79.176
1041.6000, -79.853
1041.7000, -80.111
1041.8000, -80.408
1041.9000, -79.476
1042.0000, -77.975
1042.1000, -80.873
1042.2000, -79.754
1042.3000, -76.889
1042.4000, -81.501
1042.5000, -82.647
1042.6000, -80.628
1042.7000, -77.609
1042.8000, -76.759
1042.9000, -78.173
1043.0000, -78.107
1043.1000, -76.779
1043.2000, -77.216
1043.3000, -82.855
1043.4000, -76.370
1043.5000, -77.907
1043.6000, -76.171
1043.7000, -76.177
1043.8000, -75.725
1043.9000, -74.160
1044.0000, -73.234
1044.1000, -73.184
1044.2000, -72.531
1044.3000, -71.521
1044.4000, -70.398
1044.5000, -69.546
1044.6000, -68.393
1044.7000, -67.106
1044.8000, -66.236
1044.9000, -65.038
1045.0000, -64.162
1045.1000, -62.809
1045.2000, -61.927
1045.3000, -61.419
1045.4000, -60.972
1045.5000, -60.939
1045.6000, -61.037
1045.7000, -61.232
1045.8000, -61.781
1045.9000, -62.637
1046.0000, -63.589
1046.1000, -64.326
1046.2000, -65.576
1046.3000, -66.549
1046.4000, -67.458
1046.5000, -68.102
1046.6000, -68.985
1046.7000, -69.724
1046.8000, -70.632
1046.9000, -70.965
1047.0000, -71.887
1047.1000, -72.743
1047.2000, -73.467
1047.3000, -73.746
1047.4000, -74.323
1047.5000, -75.653
1047.6000, -73.816
1047.7000, -74.998
1047.8000, -75.311
1047.9000, -75.732
1048.0000, -76.183
1048.1000, -76.320
1048.2000, -77.464
1048.3000, -77.598
1048.4000, -77.953
1048.5000, -78.550
1048.6000, -78.705
1048.7000, -78.084
1048.8000, -76.719
1048.9000, -77.884
1049.0000, -78.403
1049.1000, -75.442
1049.2000, -78.513
1049.3000, -76.779
1049.4000, -78.130
1049.5000, -80.297
1049.6000, -76.894
1049.7000, -78.815
1049.8000, -77.396
1049.9000, -78.901
1050.0000, -76.855
1050.1000, -78.419
1050.2000, -77.177
1050.3000, -77.065
1050.4000, -77.678
1050.5000, -76.845
1050.6000, -77.162
1050.7000, -77.092
1050.8000, -76.473
1050.9000, -76.335
1051.0000, -76.100
1051.1000, -76.092
1051.2000, -75.322
1051.3000, -75.081
1051.4000, -74.601
1051.5000, -74.135
1051.6000, -74.319
1051.7000, -73.272
1051.8000, -72.661
1051.9000, -71.160
1052.0000, -70.412
1052.1000, -69.621
1052.2000, -68.140
1052.3000, -66.901
1052.4000, -65.963
1052.5000, -64.985
1052.6000, -63.591
1052.7000, -62.537
1052.8000, -61.297
1052.9000, -59.999
1053.0000, -58.655
1053.1000, -57.345
1053.2000, -55.789
1053.3000, -54.387
1053.4000, -52.882
1053.5000, -51.459
1053.6000, -49.897
1053.7000, -48.404
1053.8000, -46.708
1053.9000, -45.338
1054.0000, -44.038
1054.1000, -42.774
1054.2000, -41.243
1054.3000, -39.546
1054.4000, -37.517
1054.5000, -36.293
1054.6000, -35.234
1054.7000, -34.446
1054.8000, -34.021
1054.9000, -33.734
1055.0000, -33.699
1055.1000, -33.964
1055.2000, -34.445
1055.3000, -35.167
1055.4000, -36.078
1055.5000, -36.932
1055.6000, -38.094
1055.7000, -39.401
1055.8000, -40.629
1055.9000, -41.642
1056.0000, -42.573
1056.1000, -43.290
1056.2000, -43.775
1056.3000, -44.144
1056.4000, -44.568
1056.5000, -44.831
1056.6000, -45.529
1056.7000, -45.630
1056.8000, -45.882
1056.9000, -46.704
1057.0000, -47.947
1057.1000, -49.125
1057.2000, -50.034
1057.3000, -51.533
1057.4000, -52.673
1057.5000, -54.670
1057.6000, -55.372
1057.7000, -57.203
1057.8000, -58.989
1057.9000, -59.915
1058.0000, -60.754
1058.1000, -61.544
1058.2000, -62.047
1058.3000, -62.949
1058.4000, -63.218
1058.5000, -63.627
1058.6000, -63.820
1058.7000, -63.518
1058.8000, -63.254
1058.9000, -62.602
1059.0000, -62.106
1059.1000, -61.192
1059.2000, -60.227
1059.3000, -59.008
1059.4000, -58.362
1059.5000, -57.107
1059.6000, -55.976
1059.7000, -55.037
1059.8000, -53.824
1059.9000, -52.695
1060.0000, -51.451
1060.1000, -50.183
1060.2000, -49.660
1060.3000, -48.833
1060.4000, -47.943
1060.5000, -47.594
1060.6000, -46.672
1060.7000, -46.157
1060.8000, -45.620
1060.9000, -45.364
1061.0000, -45.014
1061.1000, -44.588
1061.2000, -44.461
1061.3000, -44.113
1061.4000, -43.809
1061.5000, -43.168
1061.6000, -42.791
1061.7000, -42.064
1061.8000, -41.265
1061.9000, -40.516
1062.0000, -39.455
1062.1000, -38.775
1062.2000, -37.887
1062.3000, -37.391
1062.4000, -36.589
1062.5000, -36.079
1062.6000, -35.601
1062.7000, -35.168
1062.8000, -35.137
1062.9000, -34.576
1063.0000, -34.282
1063.1000, -33.829
1063.2000, -33.530
1063.3000, -33.006
1063.4000, -32.401
1063.5000, -31.583
1063.6000, -30.042
1063.7000, -26.596
1063.8000, -21.545
1063.9000, -17.790
1064.0000, -16.174
1064.1000, -15.707
1064.2000, -15.282
1064.3000, -14.814
1064.4000, -13.826
1064.5000, -13.697
1064.6000, -14.582
1064.7000, -15.835
1064.8000, -16.307
1064.9000, -16.797
1065.0000, -17.517
1065.1000, -20.436
1065.2000, -25.397
1065.3000, -27.615
1065.4000, -29.792
1065.5000, -31.781
1065.6000, -33.413
1065.7000, -34.748
1065.8000, -36.148
1065.9000, -37.050
1066.0000, -38.048
1066.1000, -39.105
1066.2000, -40.024
1066.3000, -40.936
1066.4000, -41.839
1066.5000, -42.794
1066.6000, -43.844
1066.7000, -44.578
1066.8000, -45.584
1066.9000, -46.388
1067.0000, -47.133
1067.1000, -47.875
1067.2000, -48.635
1067.3000, -49.405
1067.4000, -49.936
1067.5000, -50.523
1067.6000, -50.946
1067.7000, -51.476
1067.8000, -51.831
1067.9000, -52.335
1068.0000, -52.710
1068.1000, -52.855
1068.2000, -53.115
1068.3000, -53.231
1068.4000, -53.294
1068.5000, -53.393
1068.6000, -53.233
1068.7000, -53.139
1068.8000, -52.771
1068.9000, -52.567
1069.0000, -52.005
1069.1000, -51.972
1069.2000, -51.448
1069.3000, -50.889
1069.4000, -50.355
1069.5000, -49.586
1069.6000, -49.223
1069.7000, -48.184
1069.8000, -47.612
1069.9000, -47.112
1070.0000, -46.252
1070.1000, -45.690
1070.2000, -44.946
1070.3000, -44.218
1070.4000, -43.268
1070.5000, -42.407
1070.6000, -41.642
1070.7000, -41.094
1070.8000, -39.978
1070.9000, -39.221
1071.0000, -38.415
1071.1000, -37.670
1071.2000, -36.999
1071.3000, -36.113
1071.4000, -35.221
1071.5000, -34.368
1071.6000, -33.560
1071.7000, -32.908
1071.8000, -32.064
1071.9000, -31.275
1072.0000, -30.546
1072.1000, -29.861
1072.2000, -29.243
1072.3000, -28.561
1072.4000, -27.937
1072.5000, -27.265
1072.6000, -26.496
1072.7000, -25.994
1072.8000, -25.461
1072.9000, -24.664
1073.0000, -23.785
1073.1000, -22.906
1073.2000, -22.094
1073.3000, -21.234
1073.4000, -20.411
1073.5000, -19.407
1073.6000, -18.386
1073.7000, -17.493
1073.8000, -16.600
1073.9000, -15.650
1074.0000, -14.750
1074.1000, -13.946
1074.2000, -13.115
1074.3000, -12.586
1074.4000, -12.018
1074.5000, -11.708
1074.6000, -11.542
1074.7000, -11.488
1074.8000, -11.634
1074.9000, -11.882
1075.0000, -12.319
1075.1000, -12.760
1075.2000, -13.393
1075.3000, -14.148
1075.4000, -14.946
1075.5000, -15.790
1075.6000, -16.428
1075.7000, -17.365
1075.8000, -18.075
1075.9000, -18.586
1076.0000, -19.224
1076.1000, -19.595
1076.2000, -20.175
1076.3000, -20.610
1076.4000, -20.945
1076.5000, -21.242
1076.6000, -21.716
1076.7000, -22.079
1076.8000, -22.370
1076.9000, -22.791
1077.0000, -23.083
1077.1000, -23.425
1077.2000, -23.741
1077.3000, -24.046
1077.4000, -24.466
1077.5000, -25.045
1077.6000, -25.549
1077.7000, -26.163
1077.8000, -26.755
1077.9000, -27.641
1078.0000, -28.456
1078.1000, -29.381
1078.2000, -30.255
1078.3000, -31.241
1078.4000, -32.288
1078.5000, -33.156
1078.6000, -34.347
1078.7000, -35.210
1078.8000, -36.090
1078.9000, -37.009
1079.0000, -37.821
1079.1000, -38.425
1079.2000, -39.028
1079.3000, -39.930
1079.4000, -40.544
1079.5000, -41.103
1079.6000, -41.530
1079.7000, -42.179
1079.8000, -42.781
1079.9000, -43.182
1080.0000, -43.723
1080.1000, -44.334
1080.2000, -44.779
1080.3000, -45.229
1080.4000, -45.476
1080.5000, -46.193
1080.6000, -46.343
1080.7000, -46.682
1080.8000, -46.978
1080.9000, -47.302
1081.0000, -47.138
1081.1000, -47.137
1081.2000, -47.214
1081.3000, -46.983
1081.4000, -46.743
1081.5000, -46.461
1081.6000, -46.138
1081.7000, -45.832
1081.8000, -45.417
1081.9000, -44.800
1082.0000, -44.635
1082.1000, -44.234
1082.2000, -43.627
1082.3000, -43.193
1082.4000, -42.677
1082.5000, -41.901
1082.6000, -41.205
1082.7000, -40.650
1082.8000, -40.077
1082.9000, -39.503
1083.0000, -38.714
1083.1000, -38.186
1083.2000, -37.490
1083.3000, -36.769
1083.4000, -36.258
1083.5000, -35.197
1083.6000, -34.477
1083.7000, -33.596
1083.8000, -32.800
1083.9000, -32.030
1084.0000, -31.426
1084.1000, -30.566
1084.2000, -29.935
1084.3000, -29.498
1084.4000, -29.179
1084.5000, -28.905
1084.6000, -28.794
1084.7000, -29.002
1084.8000, -29.210
1084.9000, -29.853
1085.0000, -30.546
1085.1000, -31.331
1085.2000, -32.262
1085.3000, -33.259
1085.4000, -34.214
1085.5000, -35.053
1085.6000, -35.674
1085.7000, -36.336
1085.8000, -37.110
1085.9000, -37.772
1086.0000, -38.647
1086.1000, -39.503
1086.2000, -40.268
1086.3000, -40.963
1086.4000, -41.661
1086.5000, -42.260
1086.6000, -42.554
1086.7000, -43.214
1086.8000, -43.700
1086.9000, -44.237
1087.0000, -44.672
1087.1000, -45.634
1087.2000, -45.979
1087.3000, -46.572
1087.4000, -47.315
1087.5000, -48.219
1087.6000, -48.574
1087.7000, -49.161
1087.8000, -49.949
1087.9000, -50.280
1088.0000, -50.919
1088.1000, -51.220
1088.2000, -51.656
1088.3000, -51.969
1088.4000, -52.322
1088.5000, -52.447
1088.6000, -52.778
1088.7000, -52.935
1088.8000, -53.075
1088.9000, -53.295
1089.0000, -53.485
1089.1000, -53.598
1089.2000, -53.655
1089.3000, -53.725
1089.4000, -53.794
1089.5000, -53.847
1089.6000, -53.785
1089.7000, -53.943
1089.8000, -53.953
1089.9000, -54.038
1090.0000, -54.002
1090.1000, -54.028
1090.2000, -54.011
1090.3000, -54.001
1090.4000, -54.156
1090.5000, -54.228
1090.6000, -54.143
1090.7000, -54.137
1090.8000, -54.089
1090.9000, -54.141
1091.0000, -54.072
1091.1000, -54.134
1091.2000, -54.152
1091.3000, -54.081
1091.4000, -54.061
1091.5000, -54.109
1091.6000, -54.031
1091.7000, -53.942
1091.8000, -53.888
1091.9000, -53.870
1092.0000, -53.858
1092.1000, -53.767
1092.2000, -53.649
1092.3000, -53.571
1092.4000, -53.608
1092.5000, -53.476
1092.6000, -53.434
1092.7000, -53.416
1092.8000, -53.303
1092.9000, -53.218
1093.0000, -53.039
1093.1000, -53.005
1093.2000, -52.832
1093.3000, -52.756
1093.4000, -52.632
1093.5000, -52.457
1093.6000, -52.327
1093.7000, -52.201
1093.8000, -52.069
1093.9000, -51.983
1094.0000, -51.790
1094.1000, -51.729
1094.2000, -51.663
1094.3000, -51.461
1094.4000, -51.446
1094.5000, -51.328
1094.6000, -51.166
1094.7000, -51.163
1094.8000, -51.077
1094.9000, -51.201
1095.0000, -51.221
1095.1000, -51.168
1095.2000, -51.164
1095.3000, -51.289
1095.4000, -51.227
1095.5000, -51.359
1095.6000, -51.289
1095.7000, -51.298
1095.8000, -51.189
1095.9000, -51.119
1096.0000, -51.106
1096.1000, -51.050
1096.2000, -50.995
1096.3000, -50.883
1096.4000, -50.770
1096.5000, -50.705
1096.6000, -50.568
1096.7000, -50.501
1096.8000, -50.380
1096.9000, -50.343
1097.0000, -50.261
1097.1000, -50.107
1097.2000, -50.020
1097.3000, -49.909
1097.4000, -49.718
1097.5000, -49.690
1097.6000, -49.513
1097.7000, -49.369
1097.8000, -49.328
1097.9000, -49.217
1098.0000, -49.161
1098.1000, -49.022
1098.2000, -48.808
1098.3000, -48.794
1098.4000, -48.632
1098.5000, -48.496
1098.6000, -48.392
1098.7000, -48.265
1098.8000, -48.207
1098.9000, -47.970
1099.0000, -47.830
1099.1000, -47.729
1099.2000, -47.570
1099.3000, -47.640
1099.4000, -47.391
1099.5000, -47.314
1099.6000, -47.194
1099.7000, -47.087
1099.8000, -46.976
1099.9000, -46.809
1100.0000, -46.662
1100.1000, -46.512
1100.2000, -46.375
1100.3000, -46.321
1100.4000, -46.202
1100.5000, -46.072
1100.6000, -45.903
1100.7000, -45.860
1100.8000, -45.725
1100.9000, -45.521
1101.0000, -45.418
1101.1000, -45.290
1101.2000, -45.159
1101.3000, -45.038
1101.4000, -44.913
1101.5000, -44.825
1101.6000, -44.665
1101.7000, -44.508
1101.8000, -44.450
1101.9000, -44.217
1102.0000, -44.120
1102.1000, -44.063
1102.2000, -43.828
1102.3000, -43.761
1102.4000, -43.626
1102.5000, -43.451
1102.6000, -43.327
1102.7000, -43.199
1102.8000, -42.990
1102.9000, -42.888
1103.0000, -42.799
1103.1000, -42.581
1103.2000, -42.423
1103.3000, -42.236
1103.4000, -42.106
1103.5000, -41.891
1103.6000, -41.803
1103.7000, -41.634
1103.8000, -41.538
1103.9000, -41.342
1104.0000, -41.136
1104.1000, -40.983
1104.2000, -40.822
1104.3000, -40.681
1104.4000, -40.502
1104.5000, -40.335
1104.6000, -40.187
1104.7000, -39.997
1104.8000, -39.835
1104.9000, -39.630
1105.0000, -39.525
1105.1000, -39.325
1105.2000, -39.119
1105.3000, -38.922
1105.4000, -38.757
1105.5000, -38.552
1105.6000, -38.395
1105.7000, -38.231
1105.8000, -38.035
1105.9000, -37.884
1106.0000, -37.709
1106.1000, -37.506
1106.2000, -37.341
1106.3000, -37.158
1106.4000, -36.937
1106.5000, -36.736
1106.6000, -36.516
1106.7000, -36.347
1106.8000, -36.183
1106.9000, -36.033
1107.0000, -35.854
1107.1000, -35.611
1107.2000, -35.429
1107.3000, -35.241
1107.4000, -35.050
1107.5000, -34.879
1107.6000, -34.689
1107.7000, -34.430
1107.8000, -34.256
1107.9000, -34.110
1108.0000, -33.866
1108.1000, -33.653
1108.2000, -33.531
1108.3000, -33.298
1108.4000, -33.141
1108.5000, -32.941
1108.6000, -32.775
1108.7000, -32.560
1108.8000, -32.336
1108.9000, -32.125
1109.0000, -31.980
1109.1000, -31.789
1109.2000, -31.610
1109.3000, -31.493
1109.4000, -31.311
1109.5000, -31.170
1109.6000, -30.890
1109.7000, -30.747
1109.8000, -30.568
1109.9000, -30.343
1110.0000, -30.250
1110.1000, -30.026
1110.2000, -29.848
1110.3000, -29.675
1110.4000, -29.453
1110.5000, -29.230
1110.6000, -29.066
1110.7000, -28.889
1110.8000, -28.686
1110.9000, -28.506
1111.0000, -28.309
1111.1000, -28.108
1111.2000, -27.944
1111.3000, -27.694
1111.4000, -27.573
1111.5000, -27.360
1111.6000, -27.140
1111.7000, -26.962
1111.8000, -26.772
1111.9000, -26.547
1112.0000, -26.361
1112.1000, -26.226
1112.2000, -26.039
1112.3000, -25.804
1112.4000, -25.583
1112.5000, -25.487
1112.6000, -25.243
1112.7000, -25.054
1112.8000, -24.892
1112.9000, -24.672
1113.0000, -24.543
1113.1000, -24.336
1113.2000, -24.203
1113.3000, -23.951
1113.4000, -23.829
1113.5000, -23.631
1113.6000, -23.460
1113.7000, -23.240
1113.8000, -23.083
1113.9000, -22.984
1114.0000, -22.816
1114.1000, -22.611
1114.2000, -22.451
1114.3000, -22.284
1114.4000, -22.089
1114.5000, -21.962
1114.6000, -21.762
1114.7000, -21.632
1114.8000, -21.440
1114.9000, -21.318
1115.0000, -21.165
1115.1000, -20.971
1115.2000, -20.887
1115.3000, -20.755
1115.4000, -20.544
1115.5000, -20.419
1115.6000, -20.244
1115.7000, -20.126
1115.8000, -19.964
1115.9000, -19.797
1116.0000, -19.714
1116.1000, -19.571
1116.2000, -19.442
1116.3000, -19.294
1116.4000, -19.183
1116.5000, -19.121
1116.6000, -18.962
1116.7000, -18.916
1116.8000, -18.817
1116.9000, -18.670
1117.0000, -18.632
1117.1000, -18.454
1117.2000, -18.418
1117.3000, -18.408
1117.4000, -18.355
1117.5000, -18.332
1117.6000, -18.310
1117.7000, -18.266
1117.8000, -18.233
1117.9000, -18.242
1118.0000, -18.200
1118.1000, -18.215
1118.2000, -18.237
1118.3000, -18.274
1118.4000, -18.212
1118.5000, -18.246
1118.6000, -18.319
1118.7000, -18.340
1118.8000, -18.293
1118.9000, -18.328
1119.0000, -18.385
1119.1000, -18.448
1119.2000, -18.447
1119.3000, -18.488
1119.4000, -18.540
1119.5000, -18.566
1119.6000, -18.535
1119.7000, -18.566
1119.8000, -18.654
1119.9000, -18.642
1120.0000, -18.639
1120.1000, -18.724
1120.2000, -18.646
1120.3000, -18.661
1120.4000, -18.625
1120.5000, -18.654
1120.6000, -18.519
1120.7000, -18.530
1120.8000, -18.387
1120.9000, -18.355
1121.0000, -18.253
1121.1000, -18.196
1121.2000, -18.104
1121.3000, -17.937
1121.4000, -17.827
1121.5000, -17.681
1121.6000, -17.528
1121.7000, -17.354
1121.8000, -17.161
1121.9000, -16.999
1122.0000, -16.856
1122.1000, -16.744
1122.2000, -16.535
1122.3000, -16.417
1122.4000, -16.258
1122.5000, -16.237
1122.6000, -16.080
1122.7000, -16.006
1122.8000, -15.969
1122.9000, -16.004
1123.0000, -15.980
1123.1000, -16.012
1123.2000, -16.040
1123.3000, -16.147
1123.4000, -16.305
1123.5000, -16.485
1123.6000, -16.589
1123.7000, -16.806
1123.8000, -17.033
1123.9000, -17.253
1124.0000, -17.495
1124.1000, -17.732
1124.2000, -17.966
1124.3000, -18.220
1124.4000, -18.568
1124.5000, -18.841
1124.6000, -19.156
1124.7000, -19.369
1124.8000, -19.760
1124.9000, -20.121
1125.0000, -20.405
1125.1000, -20.807
1125.2000, -21.126
1125.3000, -21.411
1125.4000, -21.776
1125.5000, -22.119
1125.6000, -22.448
1125.7000, -22.722
1125.8000, -22.925
1125.9000, -23.369
1126.0000, -23.703
1126.1000, -23.897
1126.2000, -24.196
1126.3000, -24.439
1126.4000, -24.698
1126.5000, -24.931
1126.6000, -25.091
1126.7000, -25.345
1126.8000, -25.567
1126.9000, -25.653
1127.0000, -25.921
1127.1000, -26.091
1127.2000, -26.224
1127.3000, -26.382
1127.4000, -26.494
1127.5000, -26.605
1127.6000, -26.779
1127.7000, -26.869
1127.8000, -26.919
1127.9000, -27.086
1128.0000, -27.187
1128.1000, -27.192
1128.2000, -27.307
1128.3000, -27.355
1128.4000, -27.485
1128.5000, -27.548
1128.6000, -27.576
1128.7000, -27.631
1128.8000, -27.743
1128.9000, -27.871
1129.0000, -28.038
1129.1000, -28.033
1129.2000, -28.096
1129.3000, -28.231
1129.4000, -28.197
1129.5000, -28.397
1129.6000, -28.449
1129.7000, -28.629
1129.8000, -28.615
1129.9000, -28.776
1130.0000, -28.838
1130.1000, -28.889
1130.2000, -29.104
1130.3000, -29.142
1130.4000, -29.223
1130.5000, -29.361
1130.6000, -29.433
1130.7000, -29.547
1130.8000, -29.644
1130.9000, -29.726
1131.0000, -29.897
1131.1000, -30.100
1131.2000, -30.169
1131.3000, -30.330
1131.4000, -30.479
1131.5000, -30.640
1131.6000, -30.727
1131.7000, -30.925
1131.8000, -31.074
1131.9000, -31.192
1132.0000, -31.359
1132.1000, -31.534
1132.2000, -31.683
1132.3000, -31.830
1132.4000, -32.013
1132.5000, -32.159
1132.6000, -32.313
1132.7000, -32.506
1132.8000, -32.600
1132.9000, -32.857
1133.0000, -33.053
1133.1000, -33.223
1133.2000, -33.349
1133.3000, -33.495
1133.4000, -33.643
1133.5000, -33.848
1133.6000, -34.084
1133.7000, -34.235
1133.8000, -34.311
1133.9000, -34.510
1134.0000, -34.772
1134.1000, -35.022
1134.2000, -35.076
1134.3000, -35.266
1134.4000, -35.420
1134.5000, -35.692
1134.6000, -35.837
1134.7000, -36.014
1134.8000, -36.208
1134.9000, -36.428
1135.0000, -36.676
1135.1000, -36.774
1135.2000, -36.928
1135.3000, -37.113
1135.4000, -37.326
1135.5000, -37.520
1135.6000, -37.756
1135.7000, -37.893
1135.8000, -38.167
1135.9000, -38.332
1136.0000, -38.542
1136.1000, -38.738
1136.2000, -38.997
1136.3000, -39.098
1136.4000, -39.176
1136.5000, -39.332
1136.6000, -39.610
1136.7000, -39.735
1136.8000, -39.879
1136.9000, -39.970
1137.0000, -40.298
1137.1000, -40.352
1137.2000, -40.641
1137.3000, -40.853
1137.4000, -41.018
1137.5000, -41.249
1137.6000, -41.500
1137.7000, -41.466
1137.8000, -41.773
1137.9000, -42.072
1138.0000, -42.208
1138.1000, -42.538
1138.2000, -42.799
1138.3000, -42.886
1138.4000, -43.096
1138.5000, -43.297
1138.6000, -43.566
1138.7000, -43.839
1138.8000, -44.029
1138.9000, -44.187
1139.0000, -44.572
1139.1000, -44.795
1139.2000, -44.961
1139.3000, -45.245
1139.4000, -45.551
1139.5000, -45.741
1139.6000, -46.014
1139.7000, -46.247
1139.8000, -46.556
1139.9000, -46.742
1140.0000, -46.995
1140.1000, -47.157
1140.2000, -47.524
1140.3000, -47.733
1140.4000, -47.938
1140.5000, -48.213
1140.6000, -48.386
1140.7000, -48.673
1140.8000, -48.751
1140.9000, -49.133
1141.0000, -49.222
1141.1000, -49.372
1141.2000, -49.665
1141.3000, -49.869
1141.4000, -50.236
1141.5000, -50.376
1141.6000, -50.585
1141.7000, -50.833
1141.8000, -51.052
1141.9000, -51.106
1142.0000, -51.321
1142.1000, -51.530
1142.2000, -51.764
1142.3000, -51.986
1142.4000, -52.131
1142.5000, -52.299
1142.6000, -52.489
1142.7000, -52.676
1142.8000, -52.757
1142.9000, -53.057
1143.0000, -53.155
1143.1000, -53.360
1143.2000, -53.454
1143.3000, -53.834
1143.4000, -53.841
1143.5000, -54.001
1143.6000, -54.276
1143.7000, -54.367
1143.8000, -54.523
1143.9000, -54.671
1144.0000, -54.854
1144.1000, -54.879
1144.2000, -55.021
1144.3000, -55.224
1144.4000, -55.309
1144.5000, -55.414
1144.6000, -55.531
1144.7000, -55.677
1144.8000, -55.700
1144.9000, -55.797
1145.0000, -55.896
1145.1000, -55.907
1145.2000, -56.033
1145.3000, -56.107
1145.4000, -56.082
1145.5000, -56.263
1145.6000, -56.277
1145.7000, -56.221
1145.8000, -56.281
1145.9000, -56.381
1146.0000, -56.306
1146.1000, -56.465
1146.2000, -56.451
1146.3000, -56.513
1146.4000, -56.479
1146.5000, -56.524
1146.6000, -56.564
1146.7000, -56.620
1146.8000, -56.558
1146.9000, -56.549
1147.0000, -56.559
1147.1000, -56.624
1147.2000, -56.629
1147.3000, -56.598
1147.4000, -56.503
1147.5000, -56.456
1147.6000, -56.535
1147.7000, -56.472
1147.8000, -56.372
1147.9000, -56.320
1148.0000, -56.357
1148.1000, -56.258
1148.2000, -56.290
1148.3000, -56.229
1148.4000, -56.168
1148.5000, -56.075
1148.6000, -56.025
1148.7000, -55.963
1148.8000, -55.995
1148.9000, -55.839
1149.0000, -55.892
1149.1000, -55.741
1149.2000, -55.844
1149.3000, -55.835
1149.4000, -55.582
1149.5000, -55.565
1149.6000, -55.519
1149.7000, -55.648
1149.8000, -55.504
1149.9000, -55.544
1150.0000, -55.449
1150.1000, -55.493
1150.2000, -55.405
1150.3000, -55.363
1150.4000, -55.315
1150.5000, -55.310
1150.6000, -55.398
1150.7000, -55.250
1150.8000, -55.254
1150.9000, -55.159
1151.0000, -55.147
1151.1000, -55.037
1151.2000, -55.107
1151.3000, -55.043
1151.4000, -54.938
1151.5000, -54.832
1151.6000, -54.895
1151.7000, -54.630
1151.8000, -54.692
1151.9000, -54.592
1152.0000, -54.647
1152.1000, -54.593
1152.2000, -54.465
1152.3000, -54.350
1152.4000, -54.399
1152.5000, -54.236
1152.6000, -54.312
1152.7000, -54.030
1152.8000, -54.022
1152.9000, -54.009
1153.0000, -53.923
1153.1000, -53.701
1153.2000, -53.690
1153.3000, -53.649
1153.4000, -53.436
1153.5000, -53.479
1153.6000, -53.305
1153.7000, -53.118
1153.8000, -53.073
1153.9000, -52.942
1154.0000, -52.789
1154.1000, -52.791
1154.2000, -52.546
1154.3000, -52.541
1154.4000, -52.428
1154.5000, -52.303
1154.6000, -52.070
1154.7000, -51.991
1154.8000, -51.824
1154.9000, -51.708
1155.0000, -51.660
1155.1000, -51.587
1155.2000, -51.363
1155.3000, -51.291
1155.4000, -51.049
1155.5000, -51.099
1155.6000, -51.055
1155.7000, -50.877
1155.8000, -50.832
1155.9000, -50.715
1156.0000, -50.667
1156.1000, -50.465
1156.2000, -50.379
1156.3000, -50.299
1156.4000, -50.121
1156.5000, -49.930
1156.6000, -49.919
1156.7000, -49.807
1156.8000, -49.680
1156.9000, -49.572
1157.0000, -49.461
1157.1000, -49.432
1157.2000, -49.093
1157.3000, -48.912
1157.4000, -48.840
1157.5000, -48.677
1157.6000, -48.586
1157.7000, -48.371
1157.8000, -48.248
1157.9000, -48.094
1158.0000, -48.014
1158.1000, -47.953
1158.2000, -47.842
1158.3000, -47.511
1158.4000, -47.353
1158.5000, -47.082
1158.6000, -46.974
1158.7000, -46.891
1158.8000, -46.691
1158.9000, -46.447
1159.0000, -46.311
1159.1000, -46.146
1159.2000, -45.952
1159.3000, -45.817
1159.4000, -45.687
1159.5000, -45.332
1159.6000, -45.259
1159.7000, -45.055
1159.8000, -44.835
1159.9000, -44.767
1160.0000, -44.609
1160.1000, -44.438
1160.2000, -44.155
1160.3000, -43.975
1160.4000, -43.669
1160.5000, -43.642
1160.6000, -43.478
1160.7000, -43.302
1160.8000, -43.032
1160.9000, -42.829
1161.0000, -42.602
1161.1000, -42.347
1161.2000, -42.259
1161.3000, -41.890
1161.4000, -41.776
1161.5000, -41.530
1161.6000, -41.476
1161.7000, -41.090
1161.8000, -40.984
1161.9000, -40.693
1162.0000, -40.527
1162.1000, -40.382
1162.2000, -40.161
1162.3000, -39.870
1162.4000, -39.786
1162.5000, -39.581
1162.6000, -39.254
1162.7000, -38.958
1162.8000, -38.936
1162.9000, -38.714
1163.0000, -38.551
1163.1000, -38.388
1163.2000, -38.199
1163.3000, -37.964
1163.4000, -37.716
1163.5000, -37.624
1163.6000, -37.513
1163.7000, -37.393
1163.8000, -37.215
1163.9000, -37.021
1164.0000, -36.863
1164.1000, -36.695
1164.2000, -36.557
1164.3000, -36.400
1164.4000, -36.356
1164.5000, -36.105
1164.6000, -35.974
1164.7000, -35.776
1164.8000, -35.722
1164.9000, -35.640
1165.0000, -35.480
1165.1000, -35.151
1165.2000, -35.203
1165.3000, -34.975
1165.4000, -34.868
1165.5000, -34.671
1165.6000, -34.520
1165.7000, -34.479
1165.8000, -34.270
1165.9000, -34.120
1166.0000, -34.011
1166.1000, -33.864
1166.2000, -33.699
1166.3000, -33.583
1166.4000, -33.437
1166.5000, -33.327
1166.6000, -33.112
1166.7000, -32.892
1166.8000, -32.764
1166.9000, -32.689
1167.0000, -32.475
1167.1000, -32.303
1167.2000, -32.170
1167.3000, -32.043
1167.4000, -31.861
1167.5000, -31.694
1167.6000, -31.569
1167.7000, -31.470
1167.8000, -31.255
1167.9000, -31.162
1168.0000, -31.113
1168.1000, -31.000
1168.2000, -30.827
1168.3000, -30.739
1168.4000, -30.656
1168.5000, -30.521
1168.6000, -30.352
1168.7000, -30.378
1168.8000, -30.404
1168.9000, -30.184
1169.0000, -30.107
1169.1000, -29.892
1169.2000, -30.027
1169.3000, -29.871
1169.4000, -29.812
1169.5000, -29.807
1169.6000, -29.532
1169.7000, -29.625
1169.8000, -29.346
1169.9000, -29.365
1170.0000, -29.289
1170.1000, -29.132
1170.2000, -29.177
1170.3000, -29.050
1170.4000, -28.989
1170.5000, -28.811
1170.6000, -28.797
1170.7000, -28.613
1170.8000, -28.448
1170.9000, -28.488
1171.0000, -28.329
1171.1000, -28.264
1171.2000, -28.302
1171.3000, -28.118
1171.4000, -27.935
1171.5000, -27.863
1171.6000, -27.841
1171.7000, -27.776
1171.8000, -27.724
1171.9000, -27.673
1172.0000, -27.598
1172.1000, -27.447
1172.2000, -27.472
1172.3000, -27.342
1172.4000, -27.242
1172.5000, -27.203
1172.6000, -27.070
1172.7000, -27.001
1172.8000, -27.071
1172.9000, -26.943
1173.0000, -26.774
1173.1000, -26.836
1173.2000, -26.796
1173.3000, -26.621
1173.4000, -26.609
1173.5000, -26.651
1173.6000, -26.535
1173.7000, -26.451
1173.8000, -26.431
1173.9000, -26.300
1174.0000, -26.311
1174.1000, -26.317
1174.2000, -26.295
1174.3000, -26.121
1174.4000, -26.102
1174.5000, -26.140
1174.6000, -26.016
1174.7000, -25.957
1174.8000, -26.039
1174.9000, -25.883
1175.0000, -25.952
1175.1000, -25.938
1175.2000, -25.726
1175.3000, -25.775
1175.4000, -25.583
1175.5000, -25.678
1175.6000, -25.565
1175.7000, -25.560
1175.8000, -25.571
1175.9000, -25.590
1176.0000, -25.477
1176.1000, -25.411
1176.2000, -25.333
1176.3000, -25.420
1176.4000, -25.355
1176.5000, -25.386
1176.6000, -25.409
1176.7000, -25.400
1176.8000, -25.458
1176.9000, -25.497
1177.0000, -25.488
1177.1000, -25.611
1177.2000, -25.610
1177.3000, -25.587
1177.4000, -25.707
1177.5000, -25.815
1177.6000, -25.795
1177.7000, -25.793
1177.8000, -25.968
1177.9000, -25.989
1178.0000, -26.011
1178.1000, -26.134
1178.2000, -26.243
1178.3000, -26.268
1178.4000, -26.373
1178.5000, -26.450
1178.6000, -26.469
1178.7000, -26.559
1178.8000, -26.600
1178.9000, -26.689
1179.0000, -26.813
1179.1000, -26.866
1179.2000, -26.900
1179.3000, -27.044
1179.4000, -27.090
1179.5000, -27.175
1179.6000, -27.308
1179.7000, -27.401
1179.8000, -27.513
1179.9000, -27.518
1180.0000, -27.746
1180.1000, -27.732
1180.2000, -27.867
1180.3000, -28.034
1180.4000, -28.202
1180.5000, -28.294
1180.6000, -28.364
1180.7000, -28.461
1180.8000, -28.661
1180.9000, -28.854
1181.0000, -29.049
1181.1000, -29.087
1181.2000, -29.307
1181.3000, -29.540
1181.4000, -29.715
1181.5000, -29.994
1181.6000, -30.152
1181.7000, -30.345
1181.8000, -30.630
1181.9000, -30.913
1182.0000, -31.111
1182.1000, -31.427
1182.2000, -31.758
1182.3000, -31.985
1182.4000, -32.164
1182.5000, -32.545
1182.6000, -32.746
1182.7000, -33.176
1182.8000, -33.396
1182.9000, -33.710
1183.0000, -34.025
1183.1000, -34.382
1183.2000, -34.710
1183.3000, -35.054
1183.4000, -35.374
1183.5000, -35.698
1183.6000, -36.184
1183.7000, -36.340
1183.8000, -36.701
1183.9000, -37.044
1184.0000, -37.512
1184.1000, -37.841
1184.2000, -38.123
1184.3000, -38.499
1184.4000, -38.767
1184.5000, -39.100
1184.6000, -39.611
1184.7000, -39.897
1184.8000, -40.297
1184.9000, -40.682
1185.0000, -40.962
1185.1000, -41.438
1185.2000, -41.918
1185.3000, -42.153
1185.4000, -42.498
1185.5000, -43.087
1185.6000, -43.348
1185.7000, -43.725
1185.8000, -44.128
1185.9000, -44.388
1186.0000, -44.845
1186.1000, -45.201
1186.2000, -45.617
1186.3000, -45.886
1186.4000, -46.417
1186.5000, -46.714
1186.6000, -47.083
1186.7000, -47.505
1186.8000, -47.917
1186.9000, -48.133
1187.0000, -48.543
1187.1000, -48.984
1187.2000, -49.306
1187.3000, -49.703
1187.4000, -50.010
1187.5000, -50.322
1187.6000, -50.574
1187.7000, -51.072
1187.8000, -51.405
1187.9000, -51.714
1188.0000, -52.165
1188.1000, -52.404
1188.2000, -52.782
1188.3000, -53.070
1188.4000, -53.404
1188.5000, -53.735
1188.6000, -54.022
1188.7000, -54.391
1188.8000, -54.493
1188.9000, -55.070
1189.0000, -55.354
1189.1000, -55.836
1189.2000, -55.975
1189.3000, -56.501
1189.4000, -56.714
1189.5000, -57.063
1189.6000, -57.570
1189.7000, -57.721
1189.8000, -58.214
1189.9000, -58.373
1190.0000, -58.673
1190.1000, -59.045
1190.2000, -59.322
1190.3000, -59.629
1190.4000, -60.037
1190.5000, -60.335
1190.6000, -60.642
1190.7000, -61.059
1190.8000, -61.313
1190.9000, -61.656
1191.0000, -62.052
1191.1000, -62.321
1191.2000, -62.626
1191.3000, -62.967
1191.4000, -63.282
1191.5000, -63.558
1191.6000, -63.798
1191.7000, -64.217
1191.8000, -64.336
1191.9000, -64.803
1192.0000, -65.014
1192.1000, -65.173
1192.2000, -65.474
1192.3000, -65.746
1192.4000, -65.920
1192.5000, -66.203
1192.6000, -66.393
1192.7000, -66.647
1192.8000, -66.803
1192.9000, -66.924
1193.0000, -67.343
1193.1000, -67.462
1193.2000, -67.811
1193.3000, -67.898
1193.4000, -67.907
1193.5000, -68.225
1193.6000, -68.231
1193.7000, -68.524
1193.8000, -68.659
1193.9000, -68.780
1194.0000, -68.866
1194.1000, -69.253
1194.2000, -69.212
1194.3000, -69.414
1194.4000, -69.634
1194.5000, -69.713
1194.6000, -69.702
1194.7000, -69.913
1194.8000, -69.982
1194.9000, -70.078
1195.0000, -70.390
1195.1000, -70.556
1195.2000, -70.717
1195.3000, -70.764
1195.4000, -70.762
1195.5000, -71.149
1195.6000, -71.201
1195.7000, -71.057
1195.8000, -71.569
1195.9000, -71.352
1196.0000, -71.582
1196.1000, -71.858
1196.2000, -71.631
1196.3000, -72.272
1196.4000, -71.926
1196.5000, -72.183
1196.6000, -72.050
1196.7000, -72.469
1196.8000, -72.425
1196.9000, -72.293
1197.0000, -72.583
1197.1000, -72.528
1197.2000, -72.593
1197.3000, -72.556
1197.4000, -72.988
1197.5000, -72.896
1197.6000, -72.845
1197.7000, -72.908
1197.8000, -72.991
1197.9000, -73.105
1198.0000, -73.078
1198.1000, -72.976
1198.2000, -73.190
1198.3000, -73.206
1198.4000, -73.109
1198.5000, -73.266
1198.6000, -73.733
1198.7000, -73.543
1198.8000, -73.751
1198.9000, -73.400
1199.0000, -73.515
1199.1000, -74.033
1199.2000, -73.968
1199.3000, -73.801
1199.4000, -74.053
1199.5000, -73.942
1199.6000, -74.381
1199.7000, -72.980
1199.8000, -74.072
1199.9000, -74.501
1200.0000, -74.908
1200.1000, -74.562
1200.2000, -73.609
1200.3000, -75.501
1200.4000, -74.311
1200.5000, -74.226
1200.6000, -74.561
1200.7000, -74.620
1200.8000, -74.532
1200.9000, -75.015
1201.0000, -74.594
1201.1000, -74.472
1201.2000, -74.747
1201.3000, -76.014
1201.4000, -74.397
1201.5000, -75.845
1201.6000, -75.328
1201.7000, -75.227
1201.8000, -75.349
1201.9000, -74.976
1202.0000, -75.580
1202.1000, -75.869
1202.2000, -75.808
1202.3000, -75.403
1202.4000, -75.509
1202.5000, -75.555
1202.6000, -75.442
1202.7000, -76.345
1202.8000, -76.305
1202.9000, -76.015
1203.0000, -75.852
1203.1000, -76.562
1203.2000, -75.872
1203.3000, -76.424
1203.4000, -76.293
1203.5000, -76.188
1203.6000, -75.938
1203.7000, -76.716
1203.8000, -76.601
1203.9000, -76.420
1204.0000, -76.076
1204.1000, -77.770
1204.2000, -76.295
1204.3000, -77.275
1204.4000, -77.074
1204.5000, -76.593
1204.6000, -77.205
1204.7000, -76.983
1204.8000, -76.877
1204.9000, -77.273
1205.0000, -76.940
1205.1000, -77.138
1205.2000, -77.381
1205.3000, -77.901
1205.4000, -77.949
1205.5000, -77.389
1205.6000, -78.345
1205.7000, -78.293
1205.8000, -78.486
1205.9000, -77.984
1206.0000, -78.939
1206.1000, -78.707
1206.2000, -76.490
1206.3000, -78.514
1206.4000, -79.034
1206.5000, -77.926
1206.6000, -79.274
1206.7000, -78.023
1206.8000, -76.959
1206.9000, -79.159
1207.0000, -80.370
1207.1000, -78.779
1207.2000, -78.695
1207.3000, -78.624
1207.4000, -78.241
1207.5000, -79.956
1207.6000, -78.888
1207.7000, -80.201
1207.8000, -78.064
1207.9000, -79.098
1208.0000, -79.682
1208.1000, -78.737
1208.2000, -79.159
1208.3000, -78.657
1208.4000, -78.717
1208.5000, -79.367
1208.6000, -79.786
1208.7000, -80.312
1208.8000, -77.921
1208.9000, -80.248
1209.0000, -79.311
1209.1000, -78.969
1209.2000, -80.158
1209.3000, -79.476
1209.4000, -79.301
1209.5000, -80.341
1209.6000, -78.709
1209.7000, -80.981
1209.8000, -79.844
1209.9000, -80.307
1210.0000, -79.083
1210.1000, -79.188
1210.2000, -80.623
1210.3000, -80.001
1210.4000, -80.622
1210.5000, -78.791
1210.6000, -78.626
1210.7000, -82.309
1210.8000, -79.015
1210.9000, -80.518
1211.0000, -79.032
1211.1000, -79.102
1211.2000, -80.183
1211.3000, -81.279
1211.4000, -79.584
1211.5000, -78.524
1211.6000, -80.191
1211.7000, -79.407
1211.8000, -80.934
1211.9000, -79.212
1212.0000, -79.187
1212.1000, -80.313
1212.2000, -80.368
1212.3000, -80.320
1212.4000, -80.474
1212.5000, -81.898
1212.6000, -78.453
1212.7000, -81.130
1212.8000, -81.287
1212.9000, -82.177
1213.0000, -81.186
1213.1000, -78.953
1213.2000, -79.840
1213.3000, -79.983
1213.4000, -79.559
1213.5000, -82.187
1213.6000, -79.748
1213.7000, -79.525
1213.8000, -79.570
1213.9000, -79.745
1214.0000, -80.595
1214.1000, -80.673
1214.2000, -80.690
1214.3000, -79.915
1214.4000, -79.770
1214.5000, -79.643
1214.6000, -80.614
1214.7000, -80.898
1214.8000, -79.645
1214.9000, -82.950
1215.0000, -78.713
1215.1000, -79.705
1215.2000, -80.822
1215.3000, -78.947
1215.4000, -81.829
1215.5000, -80.174
1215.6000, -79.467
1215.7000, -79.881
1215.8000, -80.992
1215.9000, -79.367
1216.0000, -79.246
1216.1000, -80.527
1216.2000, -80.571
1216.3000, -80.916
1216.4000, -79.481
1216.5000, -78.984
1216.6000, -80.966
1216.7000, -80.095
1216.8000, -79.307
1216.9000, -82.237
1217.0000, -79.755
1217.1000, -79.709
1217.2000, -81.876
1217.3000, -79.644
1217.4000, -79.470
1217.5000, -79.986
1217.6000, -81.038
1217.7000, -79.684
1217.8000, -80.052
1217.9000, -80.184
1218.0000, -80.346
1218.1000, -80.312
1218.2000, -80.833
1218.3000, -82.729
1218.4000, -78.117
1218.5000, -86.218
1218.6000, -78.918
1218.7000, -80.130
1218.8000, -81.450
1218.9000, -79.874
1219.0000, -80.671
1219.1000, -79.933
1219.2000, -82.925
1219.3000, -80.500
1219.4000, -80.023
1219.5000, -79.521
1219.6000, -79.957
1219.7000, -80.804
1219.8000, -79.747
1219.9000, -79.094
1220.0000, -81.047
1220.1000, -79.894
1220.2000, -80.289
1220.3000, -80.576
1220.4000, -80.198
1220.5000, -80.735
1220.6000, -80.719
1220.7000, -80.063
1220.8000, -81.260
1220.9000, -80.305
1221.0000, -77.754
1221.1000,-210.000
1221.2000, -79.193
1221.3000, -80.507
1221.4000, -80.226
1221.5000, -78.868
1221.6000, -80.271
1221.7000, -80.510
1221.8000, -80.913
1221.9000, -79.497
1222.0000, -81.012
1222.1000, -80.085
1222.2000, -80.412
1222.3000, -79.105
1222.4000, -80.246
1222.5000, -79.576
1222.6000, -81.172
1222.7000, -79.211
1222.8000, -80.612
1222.9000, -80.471
1223.0000, -80.880
1223.1000, -78.988
1223.2000, -80.910
1223.3000, -79.999
1223.4000, -80.670
1223.5000, -79.808
1223.6000, -79.456
1223.7000, -79.713
1223.8000, -79.304
1223.9000, -80.273
1224.0000, -84.172
1224.1000, -79.817
1224.2000, -80.369
1224.3000, -79.524
1224.4000, -80.232
1224.5000, -81.593
1224.6000, -79.787
1224.7000, -82.635
1224.8000, -78.551
1224.9000, -79.326
1225.0000, -80.029
1225.1000, -79.140
1225.2000, -79.634
1225.3000, -81.677
1225.4000, -80.511
1225.5000, -79.024
1225.6000, -80.591
1225.7000, -81.429
1225.8000, -79.097
1225.9000, -80.157
1226.0000, -78.947
1226.1000, -81.025
1226.2000, -78.891
1226.3000, -81.569
1226.4000, -78.636
1226.5000, -79.608
1226.6000, -79.868
1226.7000, -78.063
1226.8000, -81.583
1226.9000, -79.225
1227.0000, -79.577
1227.1000, -80.622
1227.2000, -78.776
1227.3000, -80.573
1227.4000, -80.629
1227.5000, -79.398
1227.6000, -79.592
1227.7000, -81.484
1227.8000, -78.247
1227.9000, -79.775
1228.0000, -79.503
1228.1000, -77.708
1228.2000, -78.655
1228.3000, -79.141
1228.4000, -80.086
1228.5000, -81.002
1228.6000, -79.955
1228.7000, -78.030
1228.8000, -77.887
1228.9000, -82.794
1229.0000, -80.923
1229.1000, -79.877
1229.2000, -78.359
1229.3000, -80.135
1229.4000, -80.473
1229.5000, -80.810
1229.6000, -78.853
1229.7000, -79.642
1229.8000, -78.990
1229.9000, -78.089
1230.0000, -82.941
1230.1000, -79.989
1230.2000, -78.854
1230.3000, -79.470
1230.4000, -80.227
1230.5000, -79.933
1230.6000, -78.410
1230.7000, -79.396
1230.8000, -78.425
1230.9000, -78.281
1231.0000, -80.184
1231.1000, -80.610
1231.2000, -79.230
1231.3000, -79.460
1231.4000, -78.710
1231.5000, -80.131
1231.6000, -77.131
1231.7000, -78.179
1231.8000, -80.279
1231.9000, -81.509
1232.0000, -79.360
1232.1000, -78.150
1232.2000, -82.414
1232.3000, -79.502
1232.4000, -78.849
1232.5000, -80.353
1232.6000, -79.695
1232.7000, -79.964
1232.8000, -78.672
1232.9000, -78.652
1233.0000, -77.860
1233.1000, -78.205
1233.2000, -80.305
1233.3000, -86.969
1233.4000, -78.376
1233.5000, -83.254
1233.6000, -78.510
1233.7000, -79.650
1233.8000, -79.357
1233.9000, -79.202
1234.0000, -79.912
1234.1000, -78.915
1234.2000, -80.415
1234.3000, -79.585
1234.4000, -78.660
1234.5000, -79.563
1234.6000, -80.436
1234.7000, -80.168
1234.8000, -79.930
1234.9000, -78.543
1235.0000, -80.025
1235.1000, -79.206
1235.2000, -81.603
1235.3000, -79.064
1235.4000, -80.840
1235.5000, -78.908
1235.6000, -81.330
1235.7000, -79.007
1235.8000, -78.799
1235.9000, -79.526
1236.0000, -79.500
1236.1000, -79.797
1236.2000, -80.213
1236.3000, -79.035
1236.4000, -80.220
1236.5000, -80.092
1236.6000, -80.705
1236.7000, -77.373
1236.8000, -79.489
1236.9000, -80.233
1237.0000, -80.064
1237.1000, -80.544
1237.2000, -79.026
1237.3000, -78.949
1237.4000, -79.700
1237.5000, -81.068
1237.6000, -78.847
1237.7000, -79.475
1237.8000, -79.737
1237.9000, -79.749
1238.0000, -78.053
1238.1000, -83.294
1238.2000, -78.469
1238.3000, -79.961
1238.4000, -80.583
1238.5000, -79.251
1238.6000, -79.573
1238.7000, -79.866
1238.8000, -78.610
1238.9000, -79.645
1239.0000, -79.688
1239.1000, -78.918
1239.2000, -81.329
1239.3000, -80.518
1239.4000, -79.093
1239.5000, -79.198
1239.6000, -79.895
1239.7000, -78.893
1239.8000, -79.956
1239.9000, -79.191
1240.0000, -78.155
1240.1000, -78.469
1240.2000, -78.403
1240.3000, -80.826
1240.4000, -79.265
1240.5000, -79.184
1240.6000, -79.146
1240.7000, -79.302
1240.8000, -80.037
1240.9000, -78.857
1241.0000, -79.187
1241.1000, -78.493
1241.2000, -79.255
1241.3000, -79.634
1241.4000, -78.690
1241.5000, -78.887
1241.6000, -77.134
1241.7000, -78.396
1241.8000, -80.668
1241.9000, -81.550
1242.0000, -80.975
1242.1000, -78.813
1242.2000, -77.587
1242.3000, -78.214
1242.4000, -81.534
1242.5000, -80.237
1242.6000, -77.876
1242.7000, -79.149
1242.8000, -79.961
1242.9000, -79.210
1243.0000, -78.452
1243.1000, -78.879
1243.2000, -79.641
1243.3000, -80.328
1243.4000, -78.633
1243.5000, -80.332
1243.6000, -78.318
1243.7000, -78.929
1243.8000, -80.790
1243.9000, -79.152
1244.0000, -79.722
1244.1000, -79.848
1244.2000, -78.478
1244.3000, -78.125
1244.4000, -79.473
1244.5000, -82.171
1244.6000, -78.415
1244.7000, -78.811
1244.8000, -79.150
1244.9000, -78.604
1245.0000, -79.519
1245.1000, -80.597
1245.2000, -80.706
1245.3000, -78.322
1245.4000, -77.544
1245.5000, -80.188
1245.6000, -78.901
1245.7000, -79.861
1245.8000, -78.228
1245.9000, -79.547
1246.0000, -78.795
1246.1000, -79.004
1246.2000, -79.039
1246.3000, -76.911
1246.4000, -80.517
1246.5000, -82.394
1246.6000, -78.599
1246.7000, -79.768
1246.8000, -79.177
1246.9000, -81.262
1247.0000, -78.955
1247.1000, -79.057
1247.2000, -78.209
1247.3000, -78.831
1247.4000, -80.439
1247.5000, -79.731
1247.6000, -77.357
1247.7000, -80.147
1247.8000, -78.923
1247.9000, -80.252
1248.0000, -78.140
1248.1000, -79.492
1248.2000, -80.789
1248.3000, -84.472
1248.4000, -78.412
1248.5000, -80.571
1248.6000, -81.635
1248.7000, -80.944
1248.8000, -78.090
1248.9000, -81.597
1249.0000, -80.344
1249.1000, -79.251
1249.2000, -79.463
1249.3000, -84.620
1249.4000, -79.264
1249.5000, -82.000
1249.6000, -78.789
1249.7000, -79.348
1249.8000, -80.104
1249.9000, -78.909
1250.0000, -80.756
1250.1000, -80.731
1250.2000, -78.678
1250.3000, -80.753
1250.4000, -81.117
1250.5000, -79.315
1250.6000, -81.338
1250.7000,-210.000
1250.8000, -80.574
1250.9000, -80.270
1251.0000, -80.246
1251.1000, -79.558
1251.2000, -80.024
1251.3000, -80.194
1251.4000, -87.057
1251.5000, -78.037
1251.6000, -80.396
1251.7000, -82.257
1251.8000, -83.268
1251.9000, -79.669
1252.0000, -81.412
1252.1000, -82.426
1252.2000, -77.979
1252.3000, -93.185
1252.4000, -79.095
1252.5000, -83.177
1252.6000, -86.604
1252.7000, -80.749
1252.8000, -82.318
1252.9000, -78.976
1253.0000, -88.040
1253.1000, -83.816
1253.2000, -83.283
1253.3000, -79.840
1253.4000, -79.217
1253.5000, -79.395
1253.6000, -81.263
1253.7000, -90.238
1253.8000, -81.943
1253.9000, -83.260
1254.0000, -81.186
1254.1000, -82.703
1254.2000, -81.785
1254.3000, -83.200
1254.4000, -81.938
1254.5000, -79.947
1254.6000, -82.743
1254.7000, -80.019
1254.8000, -82.428
1254.9000, -81.012
1255.0000, -81.027
1255.1000, -83.526
1255.2000, -80.368
1255.3000, -89.266
1255.4000, -78.367
1255.5000, -82.392
1255.6000, -82.881
1255.7000, -82.069
1255.8000, -80.272
1255.9000, -82.921
1256.0000, -84.398
1256.1000, -83.529
1256.2000, -79.820
1256.3000, -83.858
1256.4000, -80.449
1256.5000, -82.618
1256.6000, -82.401
1256.7000, -79.991
1256.8000, -90.098
1256.9000, -79.639
1257.0000, -82.306
1257.1000, -80.654
1257.2000, -85.088
1257.3000, -82.023
1257.4000, -82.950
1257.5000, -80.875
1257.6000, -82.955
1257.7000, -82.530
1257.8000, -81.715
1257.9000, -81.792
1258.0000, -82.186
1258.1000, -80.431
1258.2000, -81.778
1258.3000, -78.764
1258.4000, -82.449
1258.5000, -88.637
1258.6000, -83.041
1258.7000, -80.708
1258.8000, -86.193
1258.9000, -81.381
1259.0000, -80.610
1259.1000, -80.995
1259.2000, -79.938
1259.3000, -90.815
1259.4000, -80.993
1259.5000, -80.032
1259.6000, -86.042
1259.7000, -89.547
1259.8000, -79.987
1259.9000, -83.388
1260.0000, -80.345
1260.1000, -84.309
1260.2000, -79.119
1260.3000, -84.090
1260.4000, -81.566
1260.5000, -90.028
1260.6000, -83.038
1260.7000, -85.337
1260.8000, -82.684
1260.9000, -84.999
1261.0000, -80.844
1261.1000, -85.042
1261.2000, -80.527
1261.3000, -81.456
1261.4000, -80.288
1261.5000, -80.584
1261.6000, -80.085
1261.7000, -90.750
1261.8000, -84.733
1261.9000, -82.006
1262.0000, -80.768
1262.1000, -84.823
1262.2000, -83.665
1262.3000, -83.525
1262.4000, -80.173
1262.5000, -81.004
1262.6000, -82.394
1262.7000, -82.486
1262.8000, -82.002
1262.9000, -83.147
1263.0000, -82.282
1263.1000, -83.781
1263.2000, -80.787
1263.3000, -82.056
1263.4000, -82.855
1263.5000, -88.564
1263.6000, -84.430
1263.7000, -80.463
1263.8000, -80.672
1263.9000, -82.273
1264.0000, -85.081
1264.1000, -79.165
1264.2000,-210.000
1264.3000, -81.896
1264.4000, -82.718
1264.5000, -82.227
1264.6000, -82.385
1264.7000, -81.708
1264.8000, -84.467
1264.9000, -80.628
1265.0000,-210.000
1265.1000, -82.356
1265.2000, -81.153
1265.3000, -80.599
1265.4000, -83.023
1265.5000, -84.427
1265.6000,-210.000
1265.7000, -81.312
1265.8000, -80.243
1265.9000, -81.010
1266.0000, -83.542
1266.1000, -80.936
1266.2000, -82.791
1266.3000, -83.585
1266.4000, -82.732
1266.5000, -87.125
1266.6000, -81.793
1266.7000, -84.142
1266.8000, -79.936
1266.9000, -81.576
1267.0000, -84.480
1267.1000, -89.119
1267.2000, -79.511
1267.3000, -86.131
1267.4000, -92.299
1267.5000, -80.308
1267.6000, -81.620
1267.7000, -79.887
1267.8000, -96.405
1267.9000, -81.068
1268.0000, -86.288
1268.1000, -82.395
1268.2000, -79.496
1268.3000, -90.648
1268.4000, -89.328
1268.5000, -79.261
1268.6000, -92.990
1268.7000, -78.819
1268.8000, -88.655
1268.9000,-210.000
1269.0000, -82.817
1269.1000, -83.275
1269.2000, -82.345
1269.3000, -82.850
1269.4000, -81.721
1269.5000, -84.895
1269.6000, -81.796
1269.7000, -83.678
1269.8000, -81.638
1269.9000, -82.759
1270.0000, -82.673
1270.1000, -88.810
1270.2000, -80.474
1270.3000, -83.176
1270.4000, -89.588
1270.5000, -82.635
1270.6000, -81.146
1270.7000, -83.712
1270.8000, -82.967
1270.9000, -82.715
1271.0000, -80.847
1271.1000, -88.274
1271.2000, -83.575
1271.3000, -83.641
1271.4000, -87.334
1271.5000, -81.100
1271.6000, -85.387
1271.7000, -81.259
1271.8000, -84.241
1271.9000, -81.265
1272.0000, -84.511
1272.1000, -81.110
1272.2000, -81.340
1272.3000, -86.144
1272.4000, -81.419
1272.5000, -86.491
1272.6000, -84.232
1272.7000, -81.771
1272.8000, -84.171
1272.9000, -80.973
1273.0000, -83.330
1273.1000, -84.010
1273.2000, -83.721
1273.3000, -83.988
1273.4000, -85.386
1273.5000, -81.903
1273.6000, -85.893
1273.7000, -81.033
1273.8000, -81.026
1273.9000, -82.296
1274.0000, -81.360
1274.1000, -88.465
1274.2000, -83.407
1274.3000, -83.178
1274.4000, -82.327
1274.5000, -80.530
1274.6000, -88.152
1274.7000, -80.617
1274.8000, -82.586
1274.9000, -81.796
1275.0000,-210.000
1275.1000, -81.041
1275.2000, -81.423
1275.3000, -80.916
1275.4000, -80.665
1275.5000, -86.347
1275.6000, -81.166
1275.7000,-210.000
1275.8000, -84.691
1275.9000, -83.501
1276.0000, -85.648
1276.1000, -84.139
1276.2000, -82.481
1276.3000, -79.814
1276.4000,-210.000
1276.5000, -80.357
1276.6000, -82.719
1276.7000, -84.857
1276.8000, -85.383
1276.9000, -81.722
1277.0000, -89.135
1277.1000, -82.705
1277.2000, -81.709
1277.3000, -85.165
1277.4000, -80.653
1277.5000, -83.816
1277.6000, -85.311
1277.7000, -82.779
1277.8000, -85.997
1277.9000, -80.807
1278.0000, -82.135
1278.1000, -81.343
1278.2000, -83.331
1278.3000, -85.964
1278.4000, -79.776
1278.5000, -82.146
1278.6000, -80.026
1278.7000, -84.817
1278.8000, -82.927
1278.9000, -81.331
1279.0000, -80.141
1279.1000, -84.026
1279.2000, -81.428
1279.3000, -85.598
1279.4000, -82.357
1279.5000, -80.527
1279.6000, -83.672
1279.7000,-210.000
1279.8000, -90.998
1279.9000, -84.475
1280.0000, -79.038
1280.1000,-210.000
1280.2000, -84.052
1280.3000, -79.739
1280.4000, -86.184
1280.5000, -85.175
1280.6000, -83.807
1280.7000, -87.172
1280.8000, -84.585
1280.9000, -81.962
1281.0000, -82.934
1281.1000, -80.818
1281.2000, -84.243
1281.3000, -87.713
1281.4000, -82.099
1281.5000, -81.044
1281.6000, -84.457
1281.7000, -85.634
1281.8000, -84.013
1281.9000, -81.677
1282.0000, -81.080
1282.1000, -82.364
1282.2000, -85.574
1282.3000, -82.156
1282.4000, -82.805
1282.5000, -80.446
1282.6000, -82.332
1282.7000, -90.149
1282.8000, -86.105
1282.9000, -81.135
1283.0000, -82.741
1283.1000, -82.255
1283.2000, -85.482
1283.3000, -81.928
1283.4000, -80.899
1283.5000, -83.345
1283.6000, -82.551
1283.7000, -81.637
1283.8000, -82.758
1283.9000, -83.093
1284.0000, -80.710
1284.1000, -84.714
1284.2000, -81.688
1284.3000, -84.101
1284.4000, -82.192
1284.5000, -80.846
1284.6000, -82.031
1284.7000, -79.978
1284.8000, -81.532
1284.9000, -82.929
1285.0000, -81.489
1285.1000,-210.000
1285.2000, -79.193
1285.3000, -82.470
1285.4000, -82.532
1285.5000, -80.062
1285.6000, -83.732
1285.7000,-210.000
1285.8000, -82.325
1285.9000, -80.687
1286.0000, -82.234
1286.1000,-210.000
1286.2000, -81.366
1286.3000, -82.012
1286.4000, -83.480
1286.5000, -83.983
1286.6000, -82.276
1286.7000, -81.879
1286.8000, -84.701
1286.9000, -82.863
1287.0000, -79.368
1287.1000, -84.479
1287.2000, -83.535
1287.3000, -79.293
1287.4000, -88.579
1287.5000, -82.438
1287.6000, -85.474
1287.7000, -80.039
1287.8000, -81.010
1287.9000, -82.335
1288.0000,-101.268
1288.1000, -80.542
1288.2000, -86.661
1288.3000, -80.086
1288.4000, -81.959
1288.5000, -83.777
1288.6000, -80.715
1288.7000, -84.307
1288.8000, -81.056
1288.9000, -81.537
1289.0000, -83.036
1289.1000, -79.285
1289.2000, -85.292
1289.3000, -83.290
1289.4000, -83.100
1289.5000, -82.185
1289.6000, -84.036
1289.7000, -80.118
1289.8000, -84.544
1289.9000, -83.579
1290.0000, -80.608
1290.1000, -79.787
1290.2000, -84.187
1290.3000, -81.117
1290.4000, -86.468
1290.5000, -81.104
1290.6000, -82.265
1290.7000,-210.000
1290.8000, -81.160
1290.9000, -81.209
1291.0000, -81.612
1291.1000, -81.643
1291.2000, -78.753
1291.3000, -82.957
1291.4000, -82.277
1291.5000,-210.000
1291.6000, -80.350
1291.7000, -84.054
1291.8000, -82.100
1291.9000, -84.593
1292.0000, -81.392
1292.1000, -80.098
1292.2000, -86.177
1292.3000, -80.951
1292.4000, -82.248
1292.5000, -80.995
1292.6000, -81.064
1292.7000, -80.689
1292.8000, -84.024
1292.9000, -80.378
1293.0000, -83.075
1293.1000, -83.691
1293.2000, -80.460
1293.3000, -81.590
1293.4000, -81.441
1293.5000, -80.241
1293.6000, -84.518
1293.7000, -80.674
1293.8000, -85.964
1293.9000, -81.432
1294.0000, -81.491
1294.1000, -81.788
1294.2000, -84.640
1294.3000, -83.440
1294.4000, -80.819
1294.5000,-210.000
1294.6000, -78.921
1294.7000, -85.719
1294.8000, -85.106
1294.9000, -79.967
1295.0000, -87.690
1295.1000, -80.455
1295.2000, -81.415
1295.3000, -82.765
1295.4000, -80.956
1295.5000, -82.167
1295.6000, -84.301
1295.7000, -80.037
1295.8000, -82.315
1295.9000, -82.399
1296.0000, -81.784
1296.1000, -84.365
1296.2000, -78.850
1296.3000, -84.571
1296.4000, -80.740
1296.5000, -82.423
1296.6000, -81.519
1296.7000, -78.694
1296.8000, -87.885
1296.9000, -82.888
1297.0000, -84.930
1297.1000, -81.506
1297.2000, -80.456
1297.3000, -83.113
1297.4000, -83.051
1297.5000, -82.247
1297.6000, -81.234
1297.7000, -81.083
1297.8000, -82.259
1297.9000, -86.282
1298.0000, -85.011
1298.1000, -81.453
1298.2000, -83.059
1298.3000, -82.484
1298.4000, -78.959
1298.5000, -84.330
1298.6000, -85.638
1298.7000, -79.933
1298.8000, -93.904
1298.9000, -78.718
1299.0000, -85.309
1299.1000, -81.634
1299.2000, -83.465
1299.3000, -81.868
1299.4000, -82.907
1299.5000, -82.016
1299.6000, -82.326
1299.7000, -86.304
1299.8000, -81.930
1299.9000, -79.992
1300.0000, -85.719
1300.1000, -82.971
1300.2000, -78.345
1300.3000, -89.413
1300.4000, -81.486
1300.5000,-210.000
1300.6000, -81.108
1300.7000, -78.669
1300.8000, -78.516
1300.9000, -87.399
1301.0000, -84.899
1301.1000, -81.028
1301.2000, -81.789
1301.3000, -81.576
1301.4000, -93.731
1301.5000, -82.806
1301.6000, -80.271
1301.7000, -83.509
1301.8000, -86.656
1301.9000, -78.792
1302.0000, -85.924
1302.1000, -81.734
1302.2000,-210.000
1302.3000, -80.030
1302.4000, -83.754
1302.5000, -79.413
1302.6000, -85.768
1302.7000, -85.559
1302.8000, -86.075
1302.9000, -80.102
1303.0000, -82.241
1303.1000, -85.004
1303.2000, -80.623
1303.3000, -82.897
1303.4000, -81.579
1303.5000, -83.034
1303.6000, -84.170
1303.7000, -82.549
1303.8000, -82.562
1303.9000, -79.561
1304.0000, -81.961
1304.1000, -82.729
1304.2000,-210.000
1304.3000, -80.074
1304.4000, -83.486
1304.5000, -83.532
1304.6000, -80.173
1304.7000,-210.000
1304.8000, -82.462
1304.9000, -84.555
1305.0000, -81.480
1305.1000,-210.000
1305.2000, -81.245
1305.3000, -83.084
1305.4000, -80.974
1305.5000, -84.385
1305.6000, -85.023
1305.7000, -80.713
1305.8000, -83.137
1305.9000, -87.241
1306.0000, -82.295
1306.1000, -81.753
1306.2000, -81.041
1306.3000, -86.633
1306.4000, -84.420
1306.5000, -79.479
1306.6000, -82.966
1306.7000,-210.000
1306.8000, -83.038
1306.9000, -83.403
1307.0000, -82.823
1307.1000, -85.315
1307.2000, -84.096
1307.3000, -83.260
1307.4000, -80.720
1307.5000, -81.522
1307.6000, -86.900
1307.7000, -81.560
1307.8000, -80.482
1307.9000, -81.570
1308.0000, -82.784
1308.1000, -85.051
1308.2000, -84.295
1308.3000, -80.201
1308.4000, -82.168
1308.5000, -86.566
1308.6000, -82.820
1308.7000, -82.809
1308.8000, -81.032
1308.9000, -89.842
1309.0000, -83.984
1309.1000, -84.853
1309.2000, -80.277
1309.3000, -81.661
1309.4000, -82.731
1309.5000, -84.416
1309.6000, -83.167
1309.7000, -81.876
1309.8000, -81.261
1309.9000, -90.348
1310.0000, -82.790
1310.1000, -79.986
1310.2000, -89.539
1310.3000, -84.369
1310.4000, -81.231
1310.5000, -82.700
1310.6000, -82.016
1310.7000, -84.415
1310.8000, -80.525
1310.9000, -87.770
1311.0000, -79.583
1311.1000,-210.000
1311.2000, -81.774
1311.3000, -84.105
1311.4000, -85.541
1311.5000, -82.631
1311.6000, -81.221
1311.7000, -85.939
1311.8000, -81.801
1311.9000, -83.726
1312.0000, -86.816
1312.1000, -82.996
1312.2000, -81.958
1312.3000, -82.633
1312.4000, -84.656
1312.5000, -81.105
1312.6000, -86.047
1312.7000, -83.512
1312.8000, -80.672
1312.9000, -82.850
1313.0000, -80.458
1313.1000, -87.882
1313.2000, -81.412
1313.3000, -85.495
1313.4000, -81.808
1313.5000, -86.773
1313.6000, -81.924
1313.7000, -82.136
1313.8000, -81.551
1313.9000, -81.049
1314.0000, -83.263
1314.1000, -85.720
1314.2000, -83.365
1314.3000, -79.582
1314.4000, -85.403
1314.5000, -80.665
1314.6000, -88.042
1314.7000, -82.052
1314.8000, -81.846
1314.9000, -84.749
1315.0000, -85.094
1315.1000, -89.568
1315.2000, -83.337
1315.3000, -85.204
1315.4000, -80.502
1315.5000, -86.739
1315.6000, -85.706
1315.7000, -80.975
1315.8000, -85.829
1315.9000, -82.326
1316.0000, -79.444
1316.1000, -88.809
1316.2000, -88.618
1316.3000, -80.739
1316.4000, -85.944
1316.5000, -84.046
1316.6000, -81.760
1316.7000, -88.216
1316.8000, -82.231
1316.9000, -82.956
1317.0000, -85.179
1317.1000, -81.573
1317.2000, -82.486
1317.3000, -82.459
1317.4000, -82.117
1317.5000, -78.836
1317.6000, -82.519
1317.7000, -88.441
1317.8000, -82.937
1317.9000, -82.639
1318.0000, -82.694
1318.1000, -81.728
1318.2000, -80.974
1318.3000, -83.896
1318.4000, -81.403
1318.5000, -78.966
1318.6000, -81.189
1318.7000, -81.049
1318.8000, -81.088
1318.9000, -80.750
1319.0000, -78.236
1319.1000, -77.947
1319.2000, -78.432
1319.3000, -76.772
1319.4000, -77.531
1319.5000, -79.255
1319.6000, -78.647
1319.7000, -78.093
1319.8000, -78.238
1319.9000, -79.364
1320.0000, -79.222
1320.1000, -78.668
1320.2000, -81.843
1320.3000, -79.626
1320.4000, -81.301
1320.5000, -79.763
1320.6000, -79.407
1320.7000, -80.122
1320.8000, -78.848
1320.9000, -81.703
1321.0000, -80.370
1321.1000, -81.278
1321.2000, -80.410
1321.3000, -82.317
1321.4000, -82.961
1321.5000, -80.732
1321.6000, -83.216
1321.7000, -85.024
1321.8000, -81.493
1321.9000, -82.033
1322.0000, -82.514
1322.1000, -81.577
1322.2000, -83.532
1322.3000, -81.182
1322.4000, -85.181
1322.5000, -83.963
1322.6000, -80.768
1322.7000, -82.676
1322.8000, -84.704
1322.9000, -92.072
1323.0000, -80.941
1323.1000, -81.410
1323.2000, -81.133
1323.3000, -82.826
1323.4000, -81.500
1323.5000, -80.528
1323.6000, -91.093
1323.7000, -82.067
1323.8000, -79.214
1323.9000,-104.921
1324.0000, -84.841
1324.1000, -79.338
1324.2000,-210.000
1324.3000, -78.216
1324.4000, -95.080
1324.5000, -85.354
1324.6000, -83.725
1324.7000, -79.362
1324.8000, -82.415
1324.9000, -79.775
1325.0000, -81.670
1325.1000,-210.000
1325.2000, -78.434
1325.3000,-210.000
1325.4000, -81.555
1325.5000, -83.883
1325.6000, -81.076
1325.7000, -87.218
1325.8000, -86.096
1325.9000,-210.000
1326.0000, -81.487
1326.1000, -81.703
1326.2000, -82.292
1326.3000, -81.687
1326.4000, -87.735
1326.5000, -79.920
1326.6000, -85.784
1326.7000, -82.914
1326.8000, -80.839
1326.9000, -90.826
1327.0000, -80.808
1327.1000,-210.000
1327.2000, -80.525
1327.3000, -82.725
1327.4000, -81.605
1327.5000, -83.750
1327.6000, -84.608
1327.7000, -82.526
1327.8000, -82.703
1327.9000, -82.087
1328.0000, -84.425
1328.1000, -82.963
1328.2000, -84.896
1328.3000, -81.042
1328.4000, -88.318
1328.5000, -80.447
1328.6000, -82.410
1328.7000, -84.459
1328.8000, -81.519
1328.9000, -82.974
1329.0000, -83.736
1329.1000, -84.087
1329.2000, -81.002
1329.3000, -84.653
1329.4000, -83.721
1329.5000, -80.422
1329.6000, -83.162
1329.7000, -86.031
1329.8000, -87.667
1329.9000, -80.748
1330.0000, -82.614
1330.1000, -83.215
1330.2000, -82.892
1330.3000, -83.281
1330.4000, -81.856
1330.5000, -80.480
1330.6000, -82.982
1330.7000, -84.738
1330.8000, -87.439
1330.9000, -80.504
1331.0000, -89.366
1331.1000, -80.677
1331.2000, -81.253
1331.3000, -83.625
1331.4000, -85.564
1331.5000, -82.283
1331.6000, -80.319
1331.7000, -85.387
1331.8000, -82.792
1331.9000, -82.473
1332.0000, -81.878
1332.1000, -85.961
1332.2000, -80.933
1332.3000, -84.823
1332.4000, -80.560
1332.5000, -79.858
1332.6000, -85.268
1332.7000, -78.298
1332.8000, -84.690
1332.9000, -86.181
1333.0000,-210.000
1333.1000, -78.835
1333.2000, -82.704
1333.3000,-210.000
1333.4000, -81.999
1333.5000, -81.852
1333.6000, -86.149
1333.7000, -79.895
1333.8000, -80.115
1333.9000, -80.402
1334.0000, -83.094
1334.1000, -79.781
1334.2000, -79.576
1334.3000, -78.767
1334.4000, -80.475
1334.5000, -79.899
1334.6000, -80.534
1334.7000, -79.874
1334.8000, -84.387
1334.9000, -79.521
1335.0000, -82.086
1335.1000, -78.332
1335.2000, -80.482
1335.3000, -83.450
1335.4000, -78.547
1335.5000, -82.780
1335.6000, -78.467
1335.7000, -79.634
1335.8000, -79.265
1335.9000, -80.257
1336.0000, -79.810
1336.1000, -81.107
1336.2000, -81.054
1336.3000, -81.187
1336.4000, -82.400
1336.5000, -80.575
1336.6000, -86.197
1336.7000, -80.879
1336.8000, -82.833
1336.9000, -77.751
1337.0000, -82.775
1337.1000, -84.305
1337.2000, -82.537
1337.3000, -84.593
1337.4000, -80.638
1337.5000, -80.966
1337.6000, -81.509
1337.7000, -85.737
1337.8000, -82.303
1337.9000, -80.297
1338.0000, -81.916
1338.1000, -79.906
1338.2000, -81.171
1338.3000, -78.864
1338.4000, -79.999
1338.5000, -78.946
1338.6000, -79.085
1338.7000, -78.792
1338.8000, -78.458
1338.9000, -77.569
1339.0000, -77.533
1339.1000, -78.178
1339.2000, -78.330
1339.3000, -77.604
1339.4000, -78.322
1339.5000, -79.093
1339.6000, -79.533
1339.7000, -80.712
1339.8000, -79.677
1339.9000, -78.542
1340.0000, -80.316
1340.1000, -99.508
1340.2000, -79.639
1340.3000, -82.269
1340.4000, -81.021
1340.5000, -82.058
1340.6000, -81.477
1340.7000, -80.030
1340.8000, -82.833
1340.9000, -81.173
1341.0000, -81.866
1341.1000, -81.160
1341.2000, -82.242
1341.3000, -80.140
1341.4000, -81.441
1341.5000, -79.106
1341.6000, -78.930
1341.7000, -80.096
1341.8000, -79.865
1341.9000, -80.320
1342.0000, -83.283
1342.1000, -78.643
1342.2000, -79.428
1342.3000, -81.681
1342.4000, -81.218
1342.5000, -81.088
1342.6000, -81.717
1342.7000, -82.857
1342.8000, -84.318
1342.9000, -80.346
1343.0000, -81.586
1343.1000, -81.793
1343.2000, -83.285
1343.3000, -81.063
1343.4000, -85.868
1343.5000, -81.094
1343.6000, -82.773
1343.7000, -84.828
1343.8000, -78.417
1343.9000, -88.294
1344.0000, -83.160
1344.1000, -84.794
1344.2000, -82.708
1344.3000, -85.464
1344.4000, -81.626
1344.5000, -82.773
1344.6000, -82.265
1344.7000, -84.790
1344.8000, -79.325
1344.9000,-210.000
1345.0000, -81.033
1345.1000, -83.016
1345.2000, -83.059
1345.3000, -87.800
1345.4000, -81.525
1345.5000, -82.958
1345.6000, -82.720
1345.7000, -82.392
1345.8000, -82.279
1345.9000, -79.032
1346.0000, -87.359
1346.1000, -79.490
1346.2000,-210.000
1346.3000, -79.984
1346.4000, -84.890
1346.5000, -82.269
1346.6000, -80.314
1346.7000, -85.684
1346.8000, -95.211
1346.9000,-210.000
1347.0000, -79.426
1347.1000, -82.245
1347.2000,-210.000
1347.3000, -80.546
1347.4000, -83.132
1347.5000, -78.970
1347.6000,-210.000
1347.7000, -81.898
1347.8000, -83.913
1347.9000, -84.254
1348.0000, -83.740
1348.1000, -79.708
1348.2000, -90.985
1348.3000, -79.904
1348.4000,-210.000
1348.5000, -82.295
1348.6000, -83.009
1348.7000, -83.695
1348.8000, -83.806
1348.9000, -83.008
1349.0000, -82.410
1349.1000, -82.038
1349.2000, -83.236
1349.3000, -80.574
1349.4000, -82.711
1349.5000,-210.000
1349.6000, -82.960
1349.7000, -81.814
1349.8000, -83.716
1349.9000, -84.384
1350.0000, -82.333
1350.1000, -88.299
1350.2000, -83.118
1350.3000, -86.134
1350.4000, -82.504
1350.5000, -86.326
1350.6000, -85.728
1350.7000, -85.864
1350.8000, -79.861
1350.9000, -83.705
1351.0000, -82.376
1351.1000, -79.752
1351.2000, -85.247
1351.3000, -85.960
1351.4000, -82.486
1351.5000, -87.957
1351.6000, -82.805
1351.7000, -85.196
1351.8000, -80.297
1351.9000, -86.009
1352.0000, -82.832
1352.1000, -81.048
1352.2000, -84.590
1352.3000, -81.784
1352.4000, -91.710
1352.5000, -82.291
1352.6000, -88.144
1352.7000, -80.559
1352.8000,-210.000
1352.9000, -81.230
1353.0000, -81.448
1353.1000, -82.107
1353.2000, -83.154
1353.3000, -90.589
1353.4000, -82.898
1353.5000, -80.237
1353.6000, -81.878
1353.7000, -80.470
1353.8000, -86.803
1353.9000, -79.533
1354.0000, -87.703
1354.1000, -79.367
1354.2000, -80.171
1354.3000, -80.664
1354.4000, -81.590
1354.5000, -80.006
1354.6000, -81.951
1354.7000, -85.009
1354.8000, -83.903
1354.9000, -81.051
1355.0000, -82.450
1355.1000, -83.743
1355.2000, -80.614
1355.3000, -83.515
1355.4000, -83.432
1355.5000, -81.495
1355.6000, -80.406
1355.7000, -84.268
1355.8000, -82.454
1355.9000, -81.968
1356.0000, -85.084
1356.1000, -81.535
1356.2000, -81.918
1356.3000, -79.584
1356.4000, -81.793
1356.5000, -80.391
1356.6000, -79.630
1356.7000, -79.857
1356.8000, -80.686
1356.9000, -78.349
1357.0000, -80.048
1357.1000, -81.848
1357.2000, -79.582
1357.3000, -78.567
1357.4000, -80.711
1357.5000, -80.529
1357.6000, -79.927
1357.7000, -80.877
1357.8000, -80.189
1357.9000, -79.379
1358.0000, -81.695
1358.1000, -83.236
1358.2000, -81.270
1358.3000, -79.316
1358.4000, -83.046
1358.5000, -80.658
1358.6000, -94.139
1358.7000, -81.261
1358.8000, -81.240
1358.9000, -84.785
1359.0000, -89.812
1359.1000, -80.089
1359.2000, -83.649
1359.3000, -82.302
1359.4000, -86.778
1359.5000, -86.269
1359.6000, -82.121
1359.7000, -82.228
1359.8000, -80.782
1359.9000, -84.524
1360.0000, -88.880
1360.1000, -85.042
1360.2000, -85.593
1360.3000, -86.712
1360.4000, -79.134
1360.5000, -84.749
1360.6000, -82.298
1360.7000, -84.561
1360.8000, -85.536
1360.9000, -81.816
1361.0000, -83.218
1361.1000, -86.584
1361.2000, -80.032
1361.3000, -84.658
1361.4000,-210.000
1361.5000, -83.243
1361.6000, -79.964
1361.7000,-210.000
1361.8000, -84.392
1361.9000, -80.946
1362.0000, -79.882
1362.1000, -90.919
1362.2000, -80.443
1362.3000, -83.032
1362.4000, -85.951
1362.5000, -79.700
1362.6000,-210.000
1362.7000, -80.806
1362.8000, -83.144
1362.9000, -84.209
1363.0000, -82.609
1363.1000, -83.173
1363.2000, -84.383
1363.3000, -82.627
1363.4000,-210.000
1363.5000, -82.191
1363.6000, -81.200
1363.7000, -81.501
1363.8000, -84.480
1363.9000,-102.254
1364.0000, -83.264
1364.1000, -83.073
1364.2000, -82.675
1364.3000, -83.525
1364.4000, -82.545
1364.5000, -83.131
1364.6000, -84.447
1364.7000, -85.061
1364.8000, -83.079
1364.9000, -84.647
1365.0000, -83.380
1365.1000, -83.864
1365.2000, -84.188
1365.3000, -82.304
1365.4000, -81.837
1365.5000, -80.910
1365.6000, -82.701
1365.7000, -85.259
1365.8000, -84.578
1365.9000, -80.414
1366.0000,-210.000
1366.1000, -82.258
1366.2000, -82.267
1366.3000, -83.871
1366.4000, -80.488
1366.5000, -83.930
1366.6000,-210.000
1366.7000, -81.643
1366.8000, -80.742
1366.9000, -80.401
1367.0000, -90.122
1367.1000, -80.299
1367.2000, -88.481
1367.3000, -86.307
1367.4000, -79.899
1367.5000, -85.539
1367.6000, -85.261
1367.7000, -90.381
1367.8000, -79.991
1367.9000, -89.388
1368.0000, -84.133
1368.1000, -81.445
1368.2000, -81.420
1368.3000, -82.487
1368.4000, -83.884
1368.5000, -83.001
1368.6000, -89.719
1368.7000, -82.615
1368.8000, -86.804
1368.9000, -81.810
1369.0000, -82.764
1369.1000, -79.399
1369.2000, -84.235
1369.3000, -83.307
1369.4000, -82.128
1369.5000, -96.105
1369.6000, -81.501
1369.7000, -82.009
1369.8000, -83.478
1369.9000,-210.000
1370.0000, -82.754
1370.1000, -97.112
1370.2000, -79.635
1370.3000, -85.279
1370.4000, -81.562
1370.5000, -79.342
1370.6000, -80.910
1370.7000, -84.392
1370.8000, -81.570
1370.9000,-210.000
1371.0000, -81.037
1371.1000,-210.000
1371.2000, -89.336
1371.3000, -82.609
1371.4000, -81.421
1371.5000, -82.236
1371.6000, -81.559
1371.7000, -86.803
1371.8000, -89.800
1371.9000, -84.693
1372.0000, -80.791
1372.1000, -88.746
1372.2000, -80.884
1372.3000, -82.526
1372.4000, -86.362
1372.5000, -87.311
1372.6000, -86.271
1372.7000, -82.467
1372.8000, -82.594
1372.9000, -83.863
1373.0000, -85.883
1373.1000, -82.494
1373.2000, -85.776
1373.3000, -80.695
1373.4000, -82.447
1373.5000, -80.973
1373.6000, -85.124
1373.7000, -80.334
1373.8000,-210.000
1373.9000, -81.589
1374.0000,-210.000
1374.1000, -82.248
1374.2000, -85.271
1374.3000, -82.483
1374.4000, -83.338
1374.5000, -86.237
1374.6000, -83.572
1374.7000, -81.730
1374.8000, -82.090
1374.9000, -81.534
1375.0000, -83.664
1375.1000, -87.118
1375.2000, -80.804
1375.3000, -83.746
1375.4000, -83.512
1375.5000, -83.344
1375.6000, -83.460
1375.7000,-210.000
1375.8000, -81.166
1375.9000, -83.953
1376.0000, -82.307
1376.1000, -82.231
1376.2000, -84.184
1376.3000, -83.157
1376.4000, -81.999
1376.5000, -82.615
1376.6000,-210.000
1376.7000, -85.497
1376.8000, -81.595
1376.9000, -83.441
1377.0000, -83.370
1377.1000,-210.000
1377.2000, -81.774
1377.3000, -82.764
1377.4000, -91.602
1377.5000, -83.310
1377.6000, -86.142
1377.7000, -79.734
1377.8000, -98.026
1377.9000, -83.530
1378.0000, -83.737
1378.1000, -85.111
1378.2000, -86.126
1378.3000, -82.253
1378.4000, -83.666
1378.5000, -81.575
1378.6000, -83.821
1378.7000, -82.781
1378.8000, -81.504
1378.9000, -83.924
1379.0000, -81.439
1379.1000, -84.524
1379.2000, -84.450
1379.3000, -81.746
1379.4000, -84.069
1379.5000, -82.448
1379.6000, -83.965
1379.7000, -83.781
1379.8000, -82.171
1379.9000, -89.956
1380.0000, -85.934
1380.1000, -81.523
1380.2000, -82.764
1380.3000, -84.192
1380.4000, -88.144
1380.5000, -82.707
1380.6000, -83.541
1380.7000, -84.671
1380.8000, -85.661
1380.9000, -81.148
1381.0000, -82.407
1381.1000, -84.934
1381.2000, -83.360
1381.3000, -86.374
1381.4000, -81.657
1381.5000, -83.089
1381.6000, -81.759
1381.7000, -82.477
1381.8000, -84.026
1381.9000, -82.948
1382.0000, -82.589
1382.1000, -84.283
1382.2000, -84.627
1382.3000, -81.760
1382.4000, -83.548
1382.5000, -83.470
1382.6000, -82.636
1382.7000, -83.111
1382.8000, -82.850
1382.9000, -82.139
1383.0000, -86.238
1383.1000, -81.518
1383.2000, -82.900
1383.3000, -84.554
1383.4000, -80.931
1383.5000, -92.025
1383.6000, -85.829
1383.7000, -82.022
1383.8000, -81.127
1383.9000, -87.123
1384.0000, -81.034
1384.1000, -83.457
1384.2000, -82.844
1384.3000, -84.141
1384.4000, -83.628
1384.5000, -85.542
1384.6000, -80.817
1384.7000, -82.373
1384.8000, -85.348
1384.9000, -82.043
1385.0000, -82.961
1385.1000, -83.889
1385.2000, -80.890
1385.3000, -83.545
1385.4000, -82.520
1385.5000, -83.620
1385.6000, -83.440
1385.7000, -83.002
1385.8000, -82.316
1385.9000, -84.232
1386.0000, -82.164
1386.1000, -85.517
1386.2000, -80.585
1386.3000, -84.997
1386.4000, -84.525
1386.5000, -80.872
1386.6000, -81.659
1386.7000,-210.000
1386.8000, -84.392
1386.9000, -86.341
1387.0000, -83.251
1387.1000, -81.442
1387.2000, -82.524
1387.3000, -82.411
1387.4000, -82.456
1387.5000, -86.549
1387.6000, -82.364
1387.7000, -82.763
1387.8000, -81.714
1387.9000, -81.087
1388.0000, -85.433
1388.1000, -83.431
1388.2000, -81.544
1388.3000, -82.473
1388.4000, -91.106
1388.5000, -82.877
1388.6000, -83.077
1388.7000, -82.045
1388.8000, -81.757
1388.9000, -84.186
1389.0000, -81.874
1389.1000, -85.763
1389.2000, -80.800
1389.3000, -87.532
1389.4000, -82.682
1389.5000, -85.173
1389.6000, -80.710
1389.7000, -83.586
1389.8000, -82.388
1389.9000, -81.463
1390.0000, -87.282
1390.1000, -81.030
1390.2000, -90.697
1390.3000, -83.340
1390.4000, -82.824
1390.5000, -83.408
1390.6000,-102.689
1390.7000, -86.457
1390.8000, -81.867
1390.9000, -81.830
1391.0000, -83.275
1391.1000, -79.967
1391.2000, -82.370
1391.3000, -82.979
1391.4000, -89.551
1391.5000, -83.445
1391.6000, -82.544
1391.7000, -81.514
1391.8000, -84.405
1391.9000, -82.331
1392.0000, -80.711
1392.1000, -84.030
1392.2000, -86.762
1392.3000, -81.732
1392.4000, -80.536
1392.5000, -82.364
1392.6000, -88.708
1392.7000, -82.841
1392.8000, -82.936
1392.9000, -82.760
1393.0000, -83.407
1393.1000, -83.231
1393.2000, -83.434
1393.3000, -82.553
1393.4000, -81.845
1393.5000, -82.899
1393.6000, -83.562
1393.7000, -82.964
1393.8000, -82.104
1393.9000, -86.524
1394.0000, -81.149
1394.1000, -87.272
1394.2000, -80.998
1394.3000, -83.945
1394.4000, -83.209
1394.5000, -84.928
1394.6000, -81.047
1394.7000, -80.450
1394.8000, -83.951
1394.9000, -84.035
1395.0000, -80.736
1395.1000, -82.897
1395.2000, -95.285
1395.3000, -79.820
1395.4000, -87.207
1395.5000, -78.710
1395.6000, -81.386
1395.7000, -88.633
1395.8000,-210.000
1395.9000, -82.386
1396.0000, -81.035
1396.1000, -83.273
1396.2000, -83.769
1396.3000, -81.005
1396.4000, -83.774
1396.5000, -84.573
1396.6000, -79.916
1396.7000, -87.522
1396.8000, -82.400
1396.9000, -86.479
1397.0000, -82.846
1397.1000, -86.460
1397.2000, -81.398
1397.3000, -80.111
1397.4000, -85.023
1397.5000, -80.643
1397.6000, -87.579
1397.7000, -81.515
1397.8000, -78.939
1397.9000, -93.173
1398.0000, -78.725
1398.1000,-210.000
1398.2000, -83.556
1398.3000, -88.378
1398.4000, -80.758
1398.5000, -82.662
1398.6000,-210.000
1398.7000, -82.636
1398.8000, -82.493
1398.9000, -82.405
1399.0000, -82.252
1399.1000, -85.352
1399.2000, -83.586
1399.3000, -81.234
1399.4000, -82.807
1399.5000, -80.656
1399.6000, -80.519
1399.7000, -79.954
1399.8000, -83.712
1399.9000, -84.988
1400.0000, -81.385
1400.1000, -84.436
1400.2000, -84.090
1400.3000, -87.374
1400.4000, -80.375
1400.5000, -84.507
1400.6000, -81.374
1400.7000, -83.335
1400.8000, -84.438
1400.9000, -85.898
1401.0000, -92.343
1401.1000, -79.126
1401.2000, -82.472
1401.3000, -84.015
1401.4000, -90.700
1401.5000, -80.607
1401.6000, -84.601
1401.7000, -82.982
1401.8000, -81.719
1401.9000, -81.457
1402.0000, -81.570
1402.1000, -84.672
1402.2000, -82.720
1402.3000, -82.110
1402.4000, -81.204
1402.5000, -86.421
1402.6000, -83.604
1402.7000, -81.778
1402.8000, -80.255
1402.9000, -86.377
1403.0000, -92.432
1403.1000, -81.610
1403.2000, -82.206
1403.3000, -83.371
1403.4000, -81.475
1403.5000, -83.506
1403.6000, -83.274
1403.7000, -82.817
1403.8000, -83.191
1403.9000, -80.282
1404.0000, -82.939
1404.1000, -83.551
1404.2000, -78.558
1404.3000, -85.189
1404.4000, -82.580
1404.5000, -79.823
1404.6000, -84.202
1404.7000, -90.716
1404.8000, -82.328
1404.9000,-210.000
1405.0000, -80.502
1405.1000, -93.404
1405.2000, -79.832
1405.3000, -80.513
1405.4000, -81.663
1405.5000, -82.947
1405.6000, -79.773
1405.7000, -95.812
1405.8000, -80.269
1405.9000, -79.701
1406.0000, -94.548
1406.1000, -85.297
1406.2000, -83.560
1406.3000, -81.229
1406.4000, -80.603
1406.5000, -81.369
1406.6000, -81.799
1406.7000, -82.644
1406.8000, -80.943
1406.9000,-210.000
1407.0000, -81.289
1407.1000, -84.419
1407.2000, -82.416
1407.3000, -83.592
1407.4000, -84.949
1407.5000, -81.583
1407.6000, -81.664
1407.7000, -80.777
1407.8000, -83.485
1407.9000, -81.590
1408.0000, -92.942
1408.1000, -84.002
1408.2000, -86.240
1408.3000, -79.785
1408.4000, -85.677
1408.5000, -84.250
1408.6000, -85.279
1408.7000, -80.571
1408.8000, -82.464
1408.9000, -82.194
1409.0000, -82.417
1409.1000, -83.565
1409.2000, -79.891
1409.3000, -81.171
1409.4000, -80.939
1409.5000, -81.735
1409.6000, -82.445
1409.7000, -82.884
1409.8000, -81.863
1409.9000, -82.152
1410.0000, -83.165
1410.1000, -83.362
1410.2000, -85.886
1410.3000, -80.061
1410.4000, -79.139
1410.5000, -79.058
1410.6000,-210.000
1410.7000, -81.815
1410.8000, -81.726
1410.9000, -96.347
1411.0000, -79.123
1411.1000, -83.284
1411.2000, -82.538
1411.3000, -83.956
1411.4000, -80.654
1411.5000, -79.982
1411.6000, -93.076
1411.7000, -79.560
1411.8000, -80.824
1411.9000, -80.546
1412.0000, -84.769
1412.1000, -82.432
1412.2000, -84.164
1412.3000, -80.963
1412.4000, -81.627
1412.5000, -78.593
1412.6000, -84.389
1412.7000, -81.499
1412.8000, -82.346
1412.9000, -83.028
1413.0000, -83.087
1413.1000, -80.748
1413.2000, -80.721
1413.3000, -83.372
1413.4000, -80.586
1413.5000, -83.256
1413.6000, -81.838
1413.7000, -80.324
1413.8000, -82.184
1413.9000, -81.617
1414.0000, -81.369
1414.1000, -81.820
1414.2000, -79.727
1414.3000, -81.092
1414.4000, -82.763
1414.5000, -80.214
1414.6000, -80.935
1414.7000, -82.083
1414.8000, -80.160
1414.9000, -81.119
1415.0000, -81.704
1415.1000, -81.618
1415.2000, -82.609
1415.3000, -79.953
1415.4000, -80.143
1415.5000, -85.115
1415.6000, -81.218
1415.7000, -81.014
1415.8000, -83.287
1415.9000, -80.184
1416.0000, -81.783
1416.1000, -80.500
1416.2000, -82.906
1416.3000, -82.372
1416.4000, -81.229
1416.5000, -83.461
1416.6000, -83.059
1416.7000, -80.179
1416.8000, -80.989
1416.9000, -83.113
1417.0000, -82.163
1417.1000, -79.826
1417.2000, -81.294
1417.3000, -91.479
1417.4000, -81.259
1417.5000, -81.523
1417.6000, -81.294
1417.7000, -83.509
1417.8000, -84.145
1417.9000, -82.018
1418.0000, -82.475
1418.1000, -81.841
1418.2000, -81.732
1418.3000, -81.817
1418.4000, -82.956
1418.5000, -80.692
1418.6000, -82.037
1418.7000, -82.276
1418.8000, -82.428
1418.9000, -80.009
1419.0000, -82.193
1419.1000, -83.104
1419.2000, -84.071
1419.3000, -79.823
1419.4000, -80.283
1419.5000, -86.639
1419.6000, -84.802
1419.7000, -80.843
1419.8000, -83.955
1419.9000, -79.391
1420.0000, -83.310
1420.1000, -81.365
1420.2000, -80.754
1420.3000, -81.936
1420.4000, -81.981
1420.5000, -83.520
1420.6000, -84.045
1420.7000, -82.474
1420.8000, -79.452
1420.9000, -82.235
1421.0000, -82.550
1421.1000, -82.241
1421.2000, -84.372
1421.3000, -83.315
1421.4000, -81.499
1421.5000, -82.115
1421.6000, -82.031
1421.7000, -78.023
1421.8000,-210.000
1421.9000, -81.049
1422.0000, -83.178
1422.1000, -80.246
1422.2000, -83.228
1422.3000,-210.000
1422.4000, -81.435
1422.5000, -81.816
1422.6000, -81.570
1422.7000, -84.651
1422.8000, -83.090
1422.9000, -81.943
1423.0000, -81.778
1423.1000, -82.237
1423.2000, -82.770
1423.3000, -82.226
1423.4000, -83.814
1423.5000, -80.624
1423.6000, -83.207
1423.7000, -81.018
1423.8000, -80.094
1423.9000, -79.973
1424.0000, -89.819
1424.1000, -82.932
1424.2000, -82.286
1424.3000, -77.938
1424.4000,-210.000
1424.5000, -80.357
1424.6000, -83.491
1424.7000, -80.009
1424.8000, -83.992
1424.9000, -79.757
1425.0000, -80.308
1425.1000, -80.552
1425.2000, -91.746
1425.3000, -80.630
1425.4000, -90.298
1425.5000, -80.432
1425.6000, -84.322
1425.7000, -80.434
1425.8000, -86.882
1425.9000, -81.166
1426.0000, -82.775
1426.1000, -81.606
1426.2000, -81.889
1426.3000, -80.409
1426.4000, -87.232
1426.5000, -80.113
1426.6000, -83.432
1426.7000, -79.736
1426.8000, -80.288
1426.9000, -87.672
1427.0000, -82.822
1427.1000, -81.518
1427.2000, -81.800
1427.3000, -82.254
1427.4000, -80.036
1427.5000, -81.263
1427.6000, -83.251
1427.7000, -81.919
1427.8000, -83.086
1427.9000, -82.323
1428.0000, -80.170
1428.1000, -80.137
1428.2000, -82.609
1428.3000, -85.182
1428.4000, -80.637
1428.5000, -83.363
1428.6000, -80.632
1428.7000, -81.453
1428.8000, -79.985
1428.9000, -82.222
1429.0000, -83.556
1429.1000, -79.340
1429.2000, -83.818
1429.3000, -80.340
1429.4000, -82.500
1429.5000, -79.367
1429.6000,-210.000
1429.7000, -81.225
1429.8000, -80.115
1429.9000, -83.128
1430.0000, -84.305
1430.1000, -80.517
1430.2000, -81.188
1430.3000, -81.932
1430.4000, -79.418
1430.5000, -83.126
1430.6000, -81.643
1430.7000, -80.418
1430.8000, -85.853
1430.9000, -80.180
1431.0000, -82.153
1431.1000, -80.105
1431.2000, -82.279
1431.3000, -80.858
1431.4000, -79.720
1431.5000,-210.000
1431.6000, -80.542
1431.7000, -80.037
1431.8000, -82.057
1431.9000, -82.435
1432.0000, -82.298
1432.1000, -81.376
1432.2000, -84.802
1432.3000, -79.599
1432.4000, -82.479
1432.5000, -81.236
1432.6000, -80.855
1432.7000, -79.429
1432.8000, -92.407
1432.9000, -79.111
1433.0000, -84.401
1433.1000, -79.604
1433.2000, -79.064
1433.3000, -89.557
1433.4000, -86.142
1433.5000, -81.422
1433.6000, -81.720
1433.7000,-210.000
1433.8000, -77.886
1433.9000, -80.900
1434.0000, -85.752
1434.1000, -78.385
1434.2000, -83.943
1434.3000, -80.648
1434.4000, -89.821
1434.5000, -86.588
1434.6000,-210.000
1434.7000, -79.491
1434.8000, -82.733
1434.9000, -82.096
1435.0000, -81.724
1435.1000, -84.286
1435.2000, -81.376
1435.3000, -80.267
1435.4000, -81.645
1435.5000, -81.007
1435.6000, -91.627
1435.7000, -79.904
1435.8000, -81.208
1435.9000, -79.831
1436.0000,-210.000
1436.1000, -79.797
1436.2000, -83.322
1436.3000, -80.636
1436.4000, -83.222
1436.5000, -81.613
1436.6000, -81.364
1436.7000, -83.453
1436.8000, -81.823
1436.9000, -79.567
1437.0000, -81.193
1437.1000, -82.074
1437.2000, -85.405
1437.3000, -82.852
1437.4000, -83.294
1437.5000, -80.436
1437.6000, -80.275
1437.7000, -80.124
1437.8000, -90.555
1437.9000, -81.605
1438.0000, -85.533
1438.1000, -83.866
1438.2000, -79.841
1438.3000, -81.431
1438.4000, -86.874
1438.5000, -81.470
1438.6000, -86.346
1438.7000, -82.979
1438.8000, -81.486
1438.9000, -81.626
1439.0000, -82.817
1439.1000, -82.248
1439.2000, -80.946
1439.3000, -83.224
1439.4000, -81.298
1439.5000, -82.672
1439.6000, -82.109
1439.7000, -82.890
1439.8000, -81.041
1439.9000, -83.652
1440.0000, -82.218
1440.1000, -81.474
1440.2000, -81.691
1440.3000, -82.756
1440.4000, -82.179
1440.5000, -84.418
1440.6000, -81.866
1440.7000, -80.101
1440.8000, -81.267
1440.9000, -81.650
1441.0000, -83.002
1441.1000, -81.391
1441.2000, -79.415
1441.3000, -83.269
1441.4000, -81.112
1441.5000, -82.635
1441.6000, -85.830
1441.7000, -83.138
1441.8000, -82.122
1441.9000, -80.571
1442.0000, -81.880
1442.1000, -81.089
1442.2000, -83.167
1442.3000, -80.953
1442.4000, -80.753
1442.5000, -82.535
1442.6000, -80.518
1442.7000, -81.451
1442.8000, -81.298
1442.9000, -80.656
1443.0000, -78.664
1443.1000, -83.749
1443.2000, -81.241
1443.3000, -80.491
1443.4000, -79.877
1443.5000, -82.769
1443.6000, -82.161
1443.7000, -80.612
1443.8000, -83.436
1443.9000, -80.354
1444.0000, -79.882
1444.1000, -81.000
1444.2000, -81.232
1444.3000, -82.337
1444.4000, -81.613
1444.5000, -79.637
1444.6000, -81.653
1444.7000, -81.200
1444.8000, -82.019
1444.9000, -80.862
1445.0000, -80.693
1445.1000, -86.222
1445.2000, -80.394
1445.3000, -82.166
1445.4000, -84.938
1445.5000, -82.263
1445.6000, -80.162
1445.7000, -80.115
1445.8000, -83.400
1445.9000, -82.481
1446.0000, -82.141
1446.1000, -82.637
1446.2000, -81.151
1446.3000, -82.724
1446.4000, -81.955
1446.5000, -82.713
1446.6000, -83.747
1446.7000, -80.182
1446.8000, -86.938
1446.9000, -81.393
1447.0000, -81.863
1447.1000, -81.809
1447.2000, -80.575
1447.3000, -81.205
1447.4000, -87.046
1447.5000, -81.772
1447.6000, -81.609
1447.7000, -80.272
1447.8000, -80.566
1447.9000, -87.953
1448.0000, -80.898
1448.1000, -82.444
1448.2000, -83.282
1448.3000, -82.430
1448.4000, -80.750
1448.5000, -81.918
1448.6000, -85.330
1448.7000, -81.262
1448.8000, -81.618
1448.9000, -81.264
1449.0000, -82.530
1449.1000, -81.913
1449.2000, -82.639
1449.3000, -81.863
1449.4000, -83.685
1449.5000, -81.836
1449.6000, -83.713
1449.7000, -80.516
1449.8000, -86.313
1449.9000, -82.226
1450.0000, -80.429
1450.1000, -83.836
1450.2000, -81.544
1450.3000, -83.524
1450.4000, -83.311
1450.5000, -81.991
1450.6000, -81.809
1450.7000, -82.852
1450.8000, -79.618
1450.9000, -82.390
1451.0000, -82.796
1451.1000, -81.602
1451.2000, -81.664
1451.3000, -81.311
1451.4000, -82.615
1451.5000, -82.220
1451.6000, -82.048
1451.7000, -81.142
1451.8000, -82.407
1451.9000, -85.435
1452.0000, -80.946
1452.1000, -81.431
1452.2000, -80.763
1452.3000, -85.169
1452.4000, -86.976
1452.5000, -81.327
1452.6000, -82.976
1452.7000, -81.487
1452.8000, -81.313
1452.9000, -85.451
1453.0000, -83.739
1453.1000, -81.943
1453.2000, -83.249
1453.3000, -82.994
1453.4000, -79.258
1453.5000, -81.609
1453.6000, -82.101
1453.7000, -84.806
1453.8000, -81.317
1453.9000, -83.857
1454.0000, -81.831
1454.1000, -83.769
1454.2000, -81.999
1454.3000, -80.331
1454.4000, -83.302
1454.5000, -82.195
1454.6000, -83.727
1454.7000, -81.508
1454.8000, -81.216
1454.9000, -81.248
1455.0000, -82.423
1455.1000, -85.115
1455.2000, -81.555
1455.3000, -81.087
1455.4000, -84.275
1455.5000, -80.527
1455.6000, -81.153
1455.7000, -81.314
1455.8000, -84.847
1455.9000, -80.271
1456.0000, -83.371
1456.1000, -82.022
1456.2000, -81.719
1456.3000, -77.746
1456.4000,-210.000
1456.5000, -84.361
1456.6000, -81.876
1456.7000, -81.611
1456.8000, -82.445
1456.9000, -82.008
1457.0000, -80.253
1457.1000, -80.596
1457.2000, -84.614
1457.3000, -80.370
1457.4000, -83.989
1457.5000, -81.060
1457.6000, -81.622
1457.7000, -80.153
1457.8000, -81.474
1457.9000, -88.559
1458.0000, -82.774
1458.1000, -81.603
1458.2000, -79.041
1458.3000, -86.645
1458.4000, -81.525
1458.5000, -83.471
1458.6000, -82.880
1458.7000, -81.696
1458.8000, -82.427
1458.9000, -81.724
1459.0000, -83.177
1459.1000, -81.249
1459.2000, -83.873
1459.3000, -82.750
1459.4000, -81.923
1459.5000, -81.207
1459.6000, -81.090
1459.7000, -80.899
1459.8000, -83.335
1459.9000, -81.475
1460.0000, -83.845
1460.1000, -82.135
1460.2000, -83.846
1460.3000, -79.787
1460.4000, -82.074
1460.5000, -83.818
1460.6000, -82.760
1460.7000, -82.961
1460.8000, -81.980
1460.9000, -83.897
1461.0000, -79.442
1461.1000,-210.000
1461.2000, -80.618
1461.3000, -81.690
1461.4000, -81.092
1461.5000, -86.313
1461.6000, -84.868
1461.7000, -80.560
1461.8000, -84.703
1461.9000, -83.153
1462.0000, -79.399
1462.1000, -85.895
1462.2000, -80.505
1462.3000, -83.492
1462.4000, -81.660
1462.5000, -82.850
1462.6000, -81.676
1462.7000, -91.307
1462.8000, -81.782
1462.9000, -79.830
1463.0000, -86.351
1463.1000, -82.472
1463.2000, -79.219
1463.3000, -82.770
1463.4000, -81.356
1463.5000, -81.955
1463.6000, -82.644
1463.7000, -80.539
1463.8000, -82.215
1463.9000, -82.694
1464.0000, -80.573
1464.1000, -80.526
1464.2000, -81.285
1464.3000, -81.620
1464.4000, -86.245
1464.5000, -81.695
1464.6000, -83.185
1464.7000, -82.067
1464.8000, -80.447
1464.9000, -80.346
1465.0000, -83.443
1465.1000, -80.103
1465.2000, -82.577
1465.3000, -87.626
1465.4000, -80.797
1465.5000, -80.917
1465.6000, -80.680
1465.7000, -85.553
1465.8000, -83.467
1465.9000, -80.612
1466.0000, -78.503
1466.1000,-210.000
1466.2000, -79.473
1466.3000, -78.992
1466.4000, -90.946
1466.5000, -79.454
1466.6000, -88.475
1466.7000, -84.123
1466.8000, -79.349
1466.9000, -80.808
1467.0000,-210.000
1467.1000, -79.082
1467.2000, -81.723
1467.3000, -81.045
1467.4000, -83.247
1467.5000, -82.833
1467.6000, -90.389
1467.7000, -79.702
1467.8000, -84.573
1467.9000, -82.316
1468.0000, -85.806
1468.1000, -81.353
1468.2000, -83.513
1468.3000, -80.915
1468.4000, -78.836
1468.5000, -81.329
1468.6000,-210.000
1468.7000, -81.506
1468.8000, -80.727
1468.9000, -84.132
1469.0000, -81.248
1469.1000, -82.763
1469.2000, -79.277
1469.3000, -82.410
1469.4000, -80.480
1469.5000, -84.338
1469.6000, -83.241
1469.7000, -80.387
1469.8000, -83.234
1469.9000, -80.842
1470.0000, -80.703
1470.1000, -86.795
1470.2000, -81.880
1470.3000, -83.637
1470.4000, -81.118
1470.5000, -82.806
1470.6000, -80.191
1470.7000, -82.818
1470.8000, -82.862
1470.9000,-210.000
1471.0000, -80.097
1471.1000, -82.054
1471.2000, -82.043
1471.3000, -80.169
1471.4000, -83.342
1471.5000, -79.835
1471.6000, -82.460
1471.7000, -83.769
1471.8000, -85.100
1471.9000, -80.161
1472.0000, -83.057
1472.1000, -78.490
1472.2000, -85.316
1472.3000, -83.851
1472.4000, -82.389
1472.5000, -80.380
1472.6000, -84.113
1472.7000, -84.831
1472.8000, -80.207
1472.9000, -82.107
1473.0000, -85.750
1473.1000, -80.803
1473.2000, -82.810
1473.3000, -79.242
1473.4000, -82.920
1473.5000, -82.867
1473.6000, -80.465
1473.7000, -84.177
1473.8000, -82.764
1473.9000, -81.867
1474.0000, -80.806
1474.1000, -85.536
1474.2000, -84.727
1474.3000, -82.229
1474.4000, -81.393
1474.5000, -84.144
1474.6000, -81.399
1474.7000, -82.455
1474.8000, -81.841
1474.9000, -82.651
1475.0000, -81.874
1475.1000, -83.097
1475.2000, -81.713
1475.3000, -80.009
1475.4000, -82.816
1475.5000, -82.629
1475.6000, -80.688
1475.7000, -80.458
1475.8000, -82.383
1475.9000, -82.261
1476.0000, -81.874
1476.1000, -83.127
1476.2000, -82.637
1476.3000, -82.198
1476.4000, -83.217
1476.5000, -79.936
1476.6000, -81.538
1476.7000, -82.236
1476.8000, -81.308
1476.9000, -81.324
1477.0000, -81.179
1477.1000, -82.414
1477.2000, -82.900
1477.3000, -81.514
1477.4000, -82.325
1477.5000, -81.595
1477.6000, -80.790
1477.7000, -81.996
1477.8000, -83.182
1477.9000, -81.292
1478.0000, -80.455
1478.1000, -82.930
1478.2000, -82.821
1478.3000, -81.376
1478.4000, -81.057
1478.5000, -79.401
1478.6000, -81.171
1478.7000, -84.938
1478.8000, -80.607
1478.9000, -83.122
1479.0000, -81.570
1479.1000, -81.646
1479.2000, -81.772
1479.3000, -80.385
1479.4000, -83.741
1479.5000, -80.975
1479.6000, -81.105
1479.7000, -81.977
1479.8000, -83.085
1479.9000, -81.381
1480.0000, -81.861
1480.1000, -82.138
1480.2000, -82.271
1480.3000, -81.597
1480.4000, -80.686
1480.5000, -80.907
1480.6000, -85.455
1480.7000, -81.218
1480.8000, -81.000
1480.9000, -80.883
1481.0000, -81.831
1481.1000, -82.949
1481.2000, -80.759
1481.3000, -83.287
1481.4000, -79.573
1481.5000, -83.178
1481.6000, -83.970
1481.7000, -85.141
1481.8000, -80.848
1481.9000, -82.375
1482.0000, -83.543
1482.1000, -80.222
1482.2000, -81.369
1482.3000, -82.110
1482.4000, -81.471
1482.5000, -80.591
1482.6000, -80.654
1482.7000, -82.250
1482.8000, -80.547
1482.9000, -82.041
1483.0000, -80.160
1483.1000, -84.243
1483.2000, -81.992
1483.3000, -82.185
1483.4000, -81.952
1483.5000, -81.504
1483.6000, -82.664
1483.7000, -82.927
1483.8000, -81.149
1483.9000, -80.955
1484.0000, -81.723
1484.1000, -80.842
1484.2000, -81.314
1484.3000, -82.009
1484.4000, -82.862
1484.5000, -81.238
1484.6000, -81.265
1484.7000, -79.282
1484.8000, -83.072
1484.9000, -80.867
1485.0000, -84.969
1485.1000, -87.288
1485.2000, -82.416
1485.3000, -80.090
1485.4000, -85.355
1485.5000, -82.561
1485.6000, -79.721
1485.7000, -82.942
1485.8000, -82.445
1485.9000, -80.658
1486.0000, -82.156
1486.1000, -82.213
1486.2000, -82.868
1486.3000, -80.791
1486.4000, -82.034
1486.5000, -82.494
1486.6000, -81.533
1486.7000, -79.665
1486.8000, -85.875
1486.9000, -81.698
1487.0000, -81.663
1487.1000, -85.941
1487.2000, -81.061
1487.3000, -81.500
1487.4000, -82.181
1487.5000, -81.942
1487.6000, -80.351
1487.7000, -80.291
1487.8000, -83.197
1487.9000, -80.487
1488.0000, -83.188
1488.1000, -81.199
1488.2000, -82.520
1488.3000, -82.388
1488.4000, -81.219
1488.5000, -83.131
1488.6000, -85.471
1488.7000, -79.759
1488.8000, -80.939
1488.9000, -80.536
1489.0000, -80.765
1489.1000, -81.733
1489.2000, -84.471
1489.3000, -80.763
1489.4000, -82.613
1489.5000, -81.094
1489.6000, -83.016
1489.7000, -82.053
1489.8000, -80.756
1489.9000, -82.474
1490.0000, -84.372
1490.1000, -80.841
1490.2000, -79.394
1490.3000, -82.147
1490.4000,-210.000
1490.5000, -79.399
1490.6000, -81.231
1490.7000, -81.582
1490.8000, -81.980
1490.9000, -79.429
1491.0000, -82.143
1491.1000, -80.223
1491.2000, -82.072
1491.3000, -80.647
1491.4000, -82.013
1491.5000, -83.672
1491.6000, -81.182
1491.7000, -81.435
1491.8000, -81.515
1491.9000, -84.568
1492.0000, -81.177
1492.1000, -81.628
1492.2000, -79.611
1492.3000, -81.406
1492.4000, -83.980
1492.5000, -81.699
1492.6000, -79.891
1492.7000, -83.338
1492.8000, -79.908
1492.9000, -80.590
1493.0000, -81.291
1493.1000, -90.022
1493.2000, -79.800
1493.3000, -81.661
1493.4000, -77.451
1493.5000, -87.779
1493.6000, -81.103
1493.7000, -84.060
1493.8000, -86.740
1493.9000, -82.017
1494.0000, -80.308
1494.1000, -81.800
1494.2000, -77.870
1494.3000, -90.430
1494.4000, -79.931
1494.5000,-210.000
1494.6000, -77.688
1494.7000, -82.887
1494.8000, -88.888
1494.9000, -80.858
1495.0000, -82.692
1495.1000, -85.106
1495.2000, -81.501
1495.3000, -81.240
1495.4000, -84.494
1495.5000, -80.058
1495.6000, -81.243
1495.7000, -82.159
1495.8000, -84.139
1495.9000, -80.429
1496.0000, -83.326
1496.1000, -81.251
1496.2000, -81.731
1496.3000, -80.826
1496.4000, -83.129
1496.5000, -80.041
1496.6000, -88.795
1496.7000, -80.442
1496.8000, -81.335
1496.9000, -82.921
1497.0000, -81.189
1497.1000, -81.572
1497.2000, -82.270
1497.3000, -80.468
1497.4000, -81.446
1497.5000, -81.462
1497.6000, -80.320
1497.7000, -87.455
1497.8000, -80.354
1497.9000, -82.199
1498.0000, -82.840
1498.1000, -81.443
1498.2000, -82.027
1498.3000, -80.533
1498.4000, -83.467
1498.5000, -79.820
1498.6000, -81.109
1498.7000, -82.772
1498.8000, -81.629
1498.9000, -81.182
1499.0000, -82.411
1499.1000, -81.551
1499.2000, -81.956
1499.3000, -82.460
1499.4000, -80.590
1499.5000, -81.855
1499.6000, -83.201
1499.7000, -82.410
1499.8000, -80.753
1499.9000, -82.805
1500.0000, -81.477
1500.1000, -81.011
1500.2000, -81.790
1500.3000, -82.475
1500.4000, -80.968
1500.5000, -83.121
1500.6000, -80.617
1500.7000, -81.206
1500.8000, -81.366
1500.9000, -80.085
1501.0000, -79.580
1501.1000,-210.000
1501.2000, -82.136
1501.3000, -81.623
1501.4000, -82.113
1501.5000, -79.893
1501.6000, -81.079
1501.7000, -81.819
1501.8000, -83.475
1501.9000, -81.154
1502.0000, -80.750
1502.1000, -80.468
1502.2000, -82.194
1502.3000, -80.462
1502.4000, -82.414
1502.5000, -80.635
1502.6000, -79.177
1502.7000, -84.256
1502.8000, -82.998
1502.9000, -79.340
1503.0000, -83.824
1503.1000, -79.488
1503.2000, -78.798
1503.3000, -90.704
1503.4000, -78.923
1503.5000, -84.117
1503.6000, -86.817
1503.7000, -82.834
1503.8000, -81.773
1503.9000, -80.846
1504.0000, -89.744
1504.1000, -79.838
1504.2000, -80.727
1504.3000, -80.596
1504.4000, -84.035
1504.5000, -80.418
1504.6000, -80.228
1504.7000, -82.553
1504.8000, -80.864
1504.9000, -81.385
1505.0000, -81.397
1505.1000, -81.302
1505.2000, -87.115
1505.3000, -79.708
1505.4000, -80.662
1505.5000, -82.805
1505.6000, -81.942
1505.7000, -80.516
1505.8000, -84.367
1505.9000, -80.895
1506.0000, -87.561
1506.1000, -79.719
1506.2000, -88.175
1506.3000, -80.120
1506.4000, -80.629
1506.5000, -80.920
1506.6000, -81.966
1506.7000, -83.364
1506.8000, -80.279
1506.9000, -82.578
1507.0000, -80.856
1507.1000, -80.002
1507.2000, -83.035
1507.3000, -81.174
1507.4000, -81.525
1507.5000, -81.521
1507.6000, -81.134
1507.7000, -80.201
1507.8000, -83.493
1507.9000, -79.286
1508.0000, -91.463
1508.1000, -79.471
1508.2000, -83.044
1508.3000, -81.573
1508.4000, -80.452
1508.5000, -84.320
1508.6000, -84.324
1508.7000, -80.437
1508.8000, -81.087
1508.9000, -81.478
1509.0000, -80.967
1509.1000, -84.326
1509.2000, -80.269
1509.3000, -80.415
1509.4000, -82.906
1509.5000, -80.899
1509.6000, -80.122
1509.7000, -81.941
1509.8000, -79.876
1509.9000, -89.883
1510.0000, -80.730
1510.1000, -79.667
1510.2000, -81.742
1510.3000, -82.733
1510.4000, -82.971
1510.5000, -78.619
1510.6000,-210.000
1510.7000, -79.574
1510.8000, -80.216
1510.9000, -85.489
1511.0000, -80.147
1511.1000, -80.263
1511.2000, -82.070
1511.3000, -85.221
1511.4000, -79.747
1511.5000, -79.589
1511.6000, -82.211
1511.7000, -81.252
1511.8000, -82.761
1511.9000, -79.977
1512.0000, -79.500
1512.1000, -79.328
1512.2000, -82.563
1512.3000, -84.905
1512.4000, -81.028
1512.5000, -79.149
1512.6000, -85.478
1512.7000, -80.047
1512.8000, -80.232
1512.9000, -81.615
1513.0000, -88.390
1513.1000, -79.327
1513.2000, -86.010
1513.3000, -82.391
1513.4000, -81.919
1513.5000, -86.070
1513.6000, -78.910
1513.7000, -81.051
1513.8000, -82.039
1513.9000, -82.364
1514.0000, -80.161
1514.1000, -83.958
1514.2000, -82.887
1514.3000, -82.148
1514.4000, -79.238
1514.5000, -83.148
1514.6000, -81.099
1514.7000, -79.771
1514.8000, -82.836
1514.9000, -80.976
1515.0000, -79.997
1515.1000, -81.807
1515.2000, -81.565
1515.3000, -80.665
1515.4000, -81.819
1515.5000, -80.865
1515.6000, -80.265
1515.7000, -83.000
1515.8000, -81.492
1515.9000, -80.486
1516.0000, -82.164
1516.1000, -81.549
1516.2000, -82.332
1516.3000, -79.652
1516.4000, -81.569
1516.5000, -80.885
1516.6000, -80.242
1516.7000, -82.210
1516.8000, -80.770
1516.9000, -82.478
1517.0000, -82.243
1517.1000, -80.663
1517.2000, -81.912
1517.3000, -84.070
1517.4000, -80.188
1517.5000, -80.656
1517.6000, -82.331
1517.7000, -81.286
1517.8000, -84.266
1517.9000, -79.802
1518.0000, -81.456
1518.1000, -84.318
1518.2000, -81.138
1518.3000, -78.506
1518.4000, -87.326
1518.5000, -81.469
1518.6000, -80.533
1518.7000, -81.350
1518.8000, -81.814
1518.9000, -82.730
1519.0000, -80.563
1519.1000, -81.401
1519.2000, -81.185
1519.3000, -81.025
1519.4000, -80.825
1519.5000, -80.808
1519.6000, -79.289
1519.7000, -81.023
1519.8000, -82.444
1519.9000, -81.359
1520.0000, -80.515
1520.1000, -81.981
1520.2000, -79.331
1520.3000, -82.277
1520.4000, -79.197
1520.5000, -81.443
1520.6000, -80.161
1520.7000, -81.858
1520.8000, -83.492
1520.9000, -80.437
1521.0000, -80.972
1521.1000, -80.605
1521.2000, -82.296
1521.3000, -80.314
1521.4000, -82.001
1521.5000, -80.103
1521.6000, -80.841
1521.7000, -82.152
1521.8000, -81.057
1521.9000, -80.284
1522.0000, -80.012
1522.1000, -81.314
1522.2000, -79.770
1522.3000, -83.012
1522.4000, -80.508
1522.5000, -80.774
1522.6000, -79.890
1522.7000, -81.234
1522.8000, -82.055
1522.9000, -82.362
1523.0000, -82.012
1523.1000, -83.576
1523.2000, -80.170
1523.3000, -80.939
1523.4000, -81.527
1523.5000, -80.434
1523.6000, -79.993
1523.7000, -80.656
1523.8000, -80.195
1523.9000, -81.702
1524.0000, -80.589
1524.1000, -80.888
1524.2000, -80.319
1524.3000, -79.084
1524.4000, -80.674
1524.5000, -84.948
1524.6000, -79.838
1524.7000, -80.134
1524.8000, -82.482
1524.9000, -79.083
1525.0000, -81.456
1525.1000, -80.861
1525.2000, -81.163
1525.3000, -80.453
1525.4000, -82.248
1525.5000, -79.953
1525.6000, -81.087
1525.7000, -80.007
1525.8000, -81.179
1525.9000, -80.976
1526.0000, -80.351
1526.1000, -78.444
1526.2000, -81.699
1526.3000, -79.073
1526.4000, -82.917
1526.5000, -80.579
1526.6000, -80.675
1526.7000, -82.463
1526.8000, -80.000
1526.9000, -83.159
1527.0000, -79.108
1527.1000, -83.005
1527.2000, -79.729
1527.3000, -84.191
1527.4000, -79.899
1527.5000, -83.943
1527.6000, -79.912
1527.7000, -80.093
1527.8000, -83.125
1527.9000, -81.775
1528.0000, -79.736
1528.1000, -80.416
1528.2000, -79.944
1528.3000, -81.324
1528.4000, -78.813
1528.5000, -80.960
1528.6000, -82.136
1528.7000, -81.800
1528.8000, -79.781
1528.9000, -80.859
1529.0000, -79.929
1529.1000, -79.995
1529.2000, -80.455
1529.3000, -80.432
1529.4000, -82.844
1529.5000, -80.484
1529.6000, -80.676
1529.7000, -80.202
1529.8000, -80.510
1529.9000, -78.617
1530.0000, -84.910
1530.1000, -79.693
1530.2000, -80.154
1530.3000, -84.334
1530.4000, -78.989
1530.5000, -81.945
1530.6000, -80.936
1530.7000, -82.134
1530.8000, -79.758
1530.9000, -81.939
1531.0000, -81.670
1531.1000, -81.361
1531.2000, -80.299
1531.3000, -80.887
1531.4000, -81.911
1531.5000, -81.299
1531.6000, -79.957
1531.7000, -81.272
1531.8000, -81.189
1531.9000, -79.128
1532.0000, -81.940
1532.1000, -78.871
1532.2000, -84.986
1532.3000, -80.309
1532.4000, -81.019
1532.5000, -81.256
1532.6000, -79.468
1532.7000, -82.389
1532.8000, -80.077
1532.9000, -80.825
1533.0000, -79.964
1533.1000, -81.356
1533.2000, -81.029
1533.3000, -78.854
1533.4000, -83.634
1533.5000, -81.195
1533.6000, -81.174
1533.7000, -81.238
1533.8000, -80.561
1533.9000, -81.414
1534.0000, -80.311
1534.1000, -82.195
1534.2000, -79.448
1534.3000, -80.701
1534.4000, -85.030
1534.5000, -79.062
1534.6000, -80.450
1534.7000, -80.457
1534.8000, -80.393
1534.9000, -81.854
1535.0000, -81.597
1535.1000, -79.707
1535.2000, -80.057
1535.3000, -81.019
1535.4000, -80.855
1535.5000, -81.208
1535.6000, -81.152
1535.7000, -79.891
1535.8000, -81.133
1535.9000, -80.698
1536.0000, -80.284
1536.1000, -81.301
1536.2000, -80.204
1536.3000, -78.731
1536.4000, -88.188
1536.5000, -81.090
1536.6000, -80.282
1536.7000, -80.654
1536.8000, -80.680
1536.9000, -81.718
1537.0000, -80.102
1537.1000, -81.488
1537.2000, -81.116
1537.3000, -79.724
1537.4000, -81.291
1537.5000, -81.844
1537.6000, -80.051
1537.7000, -83.491
1537.8000, -80.211
1537.9000, -79.152
1538.0000, -81.299
1538.1000, -80.596
1538.2000, -80.488
1538.3000, -79.695
1538.4000, -78.735
1538.5000, -84.483
1538.6000, -81.006
1538.7000, -79.674
1538.8000, -79.118
1538.9000, -79.524
1539.0000, -84.120
1539.1000, -78.910
1539.2000, -81.828
1539.3000, -80.540
1539.4000, -82.089
1539.5000, -79.254
1539.6000, -79.047
1539.7000, -84.306
1539.8000, -77.788
1539.9000, -82.281
1540.0000, -81.266
1540.1000, -80.346
1540.2000, -80.763
1540.3000, -80.713
1540.4000, -81.168
1540.5000, -82.598
1540.6000, -81.313
1540.7000, -81.613
1540.8000, -79.495
1540.9000, -81.757
1541.0000, -82.251
1541.1000, -79.248
1541.2000, -79.549
1541.3000, -78.349
1541.4000,-210.000
1541.5000, -79.575
1541.6000, -78.251
1541.7000, -82.285
1541.8000, -80.806
1541.9000, -81.653
1542.0000, -78.027
1542.1000, -79.064
1542.2000, -82.501
1542.3000, -86.147
1542.4000, -78.475
1542.5000, -78.839
1542.6000, -86.173
1542.7000, -80.216
1542.8000, -80.054
1542.9000, -80.078
1543.0000, -79.479
1543.1000, -81.472
1543.2000, -79.658
1543.3000, -79.906
1543.4000, -81.923
1543.5000, -78.841
1543.6000, -80.691
1543.7000, -81.777
1543.8000, -81.909
1543.9000, -82.956
1544.0000, -79.943
1544.1000, -80.623
1544.2000, -80.795
1544.3000, -81.458
1544.4000, -79.760
1544.5000, -79.479
1544.6000, -83.376
1544.7000, -79.966
1544.8000, -80.024
1544.9000, -79.724
1545.0000, -81.834
1545.1000, -80.190
1545.2000, -80.677
1545.3000, -83.594
1545.4000, -79.702
1545.5000, -80.754
1545.6000, -80.276
1545.7000, -80.313
1545.8000, -80.726
1545.9000, -79.606
1546.0000, -81.748
1546.1000, -79.113
1546.2000, -78.050
1546.3000, -81.169
1546.4000, -80.254
1546.5000, -85.248
1546.6000, -79.114
1546.7000, -78.825
1546.8000, -84.568
1546.9000, -80.153
1547.0000, -79.011
1547.1000, -81.340
1547.2000, -80.686
1547.3000, -80.727
1547.4000, -80.218
1547.5000, -79.831
1547.6000, -79.775
1547.7000, -80.025
1547.8000, -80.359
1547.9000, -79.983
1548.0000, -81.384
1548.1000, -80.392
1548.2000, -79.667
1548.3000, -81.019
1548.4000, -80.879
1548.5000, -80.406
1548.6000, -80.858
1548.7000, -80.684
1548.8000, -80.261
1548.9000, -79.794
1549.0000, -79.976
1549.1000, -79.874
1549.2000, -79.482
1549.3000, -80.036
1549.4000, -79.981
1549.5000, -81.095
1549.6000, -78.887
1549.7000, -81.199
1549.8000, -82.732
1549.9000, -79.929
1550.0000, -81.512
1550.1000, -83.249
1550.2000, -79.627
1550.3000, -80.412
1550.4000, -79.962
1550.5000, -81.255
1550.6000, -80.550
1550.7000, -81.329
1550.8000, -80.742
1550.9000, -79.376
1551.0000, -81.592
1551.1000, -79.290
1551.2000, -80.281
1551.3000, -80.916
1551.4000, -79.274
1551.5000, -77.692
1551.6000, -84.833
1551.7000, -78.610
1551.8000, -82.028
1551.9000, -81.033
1552.0000, -81.668
1552.1000, -80.415
1552.2000, -80.615
1552.3000, -79.908
1552.4000, -80.107
1552.5000, -82.362
1552.6000, -81.765
1552.7000, -79.806
1552.8000, -82.460
1552.9000, -80.808
1553.0000, -78.972
1553.1000, -79.643
1553.2000, -81.098
1553.3000, -77.888
1553.4000, -84.274
1553.5000, -81.953
1553.6000, -82.279
1553.7000, -80.356
1553.8000, -80.551
1553.9000, -79.967
1554.0000, -79.188
1554.1000, -79.990
1554.2000, -81.618
1554.3000, -79.428
1554.4000, -80.734
1554.5000, -80.014
1554.6000, -79.236
1554.7000, -80.661
1554.8000, -81.704
1554.9000, -79.731
1555.0000, -79.604
1555.1000, -80.325
1555.2000, -80.114
1555.3000, -81.540
1555.4000, -80.755
1555.5000, -81.248
1555.6000, -78.920
1555.7000, -84.056
1555.8000, -78.554
1555.9000, -84.316
1556.0000, -80.141
1556.1000, -81.193
1556.2000, -81.938
1556.3000, -79.238
1556.4000, -78.141
1556.5000, -81.503
1556.6000, -79.636
1556.7000, -81.767
1556.8000, -81.119
1556.9000, -79.604
1557.0000, -81.609
1557.1000, -81.845
1557.2000, -79.929
1557.3000, -78.909
1557.4000, -78.361
1557.5000, -79.225
1557.6000, -81.925
1557.7000, -84.994
1557.8000, -78.624
1557.9000, -79.607
1558.0000, -82.410
1558.1000, -80.407
1558.2000, -80.775
1558.3000, -80.349
1558.4000, -81.993
1558.5000, -79.920
1558.6000, -80.942
1558.7000, -79.153
1558.8000, -80.370
1558.9000, -83.248
1559.0000, -80.952
1559.1000, -81.540
1559.2000, -79.288
1559.3000, -80.580
1559.4000, -80.945
1559.5000, -80.272
1559.6000, -79.713
1559.7000, -79.669
1559.8000, -80.297
1559.9000, -79.045
1560.0000, -84.186
1560.1000, -79.797
1560.2000, -80.573
1560.3000, -80.596
1560.4000, -79.647
1560.5000, -79.627
1560.6000, -80.109
1560.7000, -80.697
1560.8000, -80.920
1560.9000, -80.203
1561.0000, -80.234
1561.1000, -82.523
1561.2000, -79.057
1561.3000, -79.983
1561.4000, -84.667
1561.5000, -78.237
1561.6000, -80.656
1561.7000, -79.834
1561.8000, -80.270
1561.9000, -78.351
1562.0000, -79.962
1562.1000, -81.950
1562.2000, -82.460
1562.3000, -80.161
1562.4000, -79.879
1562.5000, -82.324
1562.6000, -80.049
1562.7000, -81.201
1562.8000, -80.080
1562.9000, -79.254
1563.0000, -79.381
1563.1000, -81.104
1563.2000, -79.099
1563.3000, -80.976
1563.4000, -79.446
1563.5000, -80.305
1563.6000, -81.037
1563.7000, -80.672
1563.8000, -79.099
1563.9000, -80.853
1564.0000, -78.470
1564.1000, -79.578
1564.2000, -79.783
1564.3000, -80.167
1564.4000, -81.281
1564.5000, -82.389
1564.6000, -83.374
1564.7000, -79.432
1564.8000, -80.358
1564.9000, -80.900
1565.0000, -77.577
1565.1000, -81.981
1565.2000, -80.542
1565.3000, -82.175
1565.4000, -81.614
1565.5000, -80.412
1565.6000, -80.505
1565.7000, -80.526
1565.8000, -79.600
1565.9000, -79.694
1566.0000, -80.147
1566.1000, -79.343
1566.2000, -80.781
1566.3000, -80.469
1566.4000, -79.244
1566.5000, -82.609
1566.6000, -79.831
1566.7000, -80.053
1566.8000, -80.907
1566.9000, -80.564
1567.0000, -78.787
1567.1000, -78.458
1567.2000, -82.517
1567.3000, -80.781
1567.4000, -77.517
1567.5000, -80.065
1567.6000, -86.880
1567.7000, -78.824
1567.8000, -78.953
1567.9000, -84.135
1568.0000, -78.350
1568.1000, -80.665
1568.2000, -84.333
1568.3000, -79.000
1568.4000, -81.450
1568.5000, -81.093
1568.6000, -81.932
1568.7000, -79.952
1568.8000, -79.645
1568.9000, -79.715
1569.0000, -79.466
1569.1000, -83.179
1569.2000, -78.413
1569.3000, -79.566
1569.4000, -83.241
1569.5000, -78.407
1569.6000, -81.070
1569.7000, -80.620
1569.8000, -78.933
1569.9000, -82.166
1570.0000, -79.172
1570.1000, -81.223
1570.2000, -78.837
1570.3000, -80.966
1570.4000, -83.728
1570.5000, -79.493
1570.6000, -81.187
1570.7000, -81.790
1570.8000, -79.327
1570.9000, -82.202
1571.0000, -81.608
1571.1000, -79.335
1571.2000, -79.420
1571.3000, -84.545
1571.4000, -78.382
1571.5000, -80.877
1571.6000, -83.280
1571.7000, -79.137
1571.8000, -80.352
1571.9000, -80.689
1572.0000, -81.191
1572.1000, -80.444
1572.2000, -79.456
1572.3000, -80.428
1572.4000, -79.665
1572.5000, -81.801
1572.6000, -78.950
1572.7000, -80.056
1572.8000, -80.210
1572.9000, -79.130
1573.0000, -79.939
1573.1000, -81.045
1573.2000, -81.450
1573.3000, -79.192
1573.4000, -80.124
1573.5000, -80.453
1573.6000, -80.650
1573.7000, -79.431
1573.8000, -80.359
1573.9000, -80.857
1574.0000, -79.368
1574.1000, -80.497
1574.2000, -82.610
1574.3000, -79.742
1574.4000, -79.730
1574.5000, -83.230
1574.6000, -80.677
1574.7000, -80.883
1574.8000, -79.605
1574.9000, -82.307
1575.0000, -78.825
1575.1000, -81.392
1575.2000, -79.273
1575.3000, -79.978
1575.4000, -79.785
1575.5000, -79.925
1575.6000, -80.877
1575.7000, -80.597
1575.8000, -79.892
1575.9000, -80.055
1576.0000, -80.975
1576.1000, -79.129
1576.2000, -80.337
1576.3000, -78.068
1576.4000, -79.700
1576.5000, -81.442
1576.6000, -80.288
1576.7000, -79.741
1576.8000, -78.901
1576.9000, -83.494
1577.0000, -78.812
1577.1000, -79.748
1577.2000, -78.816
1577.3000, -80.045
1577.4000, -80.278
1577.5000, -80.484
1577.6000, -79.818
1577.7000, -78.898
1577.8000, -79.757
1577.9000, -83.500
1578.0000, -80.094
1578.1000, -78.857
1578.2000, -81.789
1578.3000, -79.661
1578.4000, -78.642
1578.5000, -86.053
1578.6000, -76.830
1578.7000, -82.853
1578.8000, -82.183
1578.9000, -79.293
1579.0000, -79.245
1579.1000, -81.365
1579.2000, -79.351
1579.3000, -81.247
1579.4000, -79.940
1579.5000, -78.631
1579.6000, -79.607
1579.7000, -80.188
1579.8000, -78.790
1579.9000, -84.815
1580.0000, -79.027
1580.1000, -79.903
1580.2000, -79.786
1580.3000, -83.828
1580.4000, -79.769
1580.5000, -78.735
1580.6000, -82.917
1580.7000, -78.887
1580.8000, -78.993
1580.9000, -81.704
1581.0000, -81.077
1581.1000, -80.990
1581.2000, -81.238
1581.3000, -81.176
1581.4000, -80.086
1581.5000, -79.360
1581.6000, -79.851
1581.7000, -79.649
1581.8000, -82.073
1581.9000, -79.767
1582.0000, -80.360
1582.1000, -81.253
1582.2000, -79.969
1582.3000, -80.230
1582.4000, -80.532
1582.5000, -81.931
1582.6000, -81.194
1582.7000, -79.185
1582.8000, -80.629
1582.9000, -80.416
1583.0000, -78.652
1583.1000, -80.519
1583.2000, -80.148
1583.3000, -79.648
1583.4000, -82.133
1583.5000, -80.252
1583.6000, -79.027
1583.7000, -79.940
1583.8000, -81.745
1583.9000, -80.084
1584.0000, -85.983
1584.1000, -77.697
1584.2000, -80.518
1584.3000, -82.067
1584.4000, -81.921
1584.5000, -78.343
1584.6000, -79.998
1584.7000, -80.023
1584.8000, -78.665
1584.9000, -79.933
1585.0000, -82.411
1585.1000, -79.517
1585.2000, -81.592
1585.3000, -81.501
1585.4000, -80.613
1585.5000, -79.359
1585.6000, -81.351
1585.7000, -80.967
1585.8000, -81.280
1585.9000, -79.770
1586.0000, -79.452
1586.1000, -80.744
1586.2000, -81.779
1586.3000, -78.742
1586.4000, -80.518
1586.5000, -80.750
1586.6000, -79.089
1586.7000, -81.733
1586.8000, -79.743
1586.9000, -80.863
1587.0000, -80.827
1587.1000, -80.081
1587.2000, -79.398
1587.3000, -82.516
1587.4000, -78.439
1587.5000, -82.461
1587.6000, -79.253
1587.7000, -78.796
1587.8000, -80.832
1587.9000, -79.394
1588.0000, -80.026
1588.1000, -81.618
1588.2000, -79.879
1588.3000, -81.953
1588.4000, -80.581
1588.5000, -80.176
1588.6000, -79.552
1588.7000, -80.606
1588.8000, -80.970
1588.9000, -79.287
1589.0000, -79.955
1589.1000, -78.548
1589.2000, -81.473
1589.3000, -82.235
1589.4000, -83.889
1589.5000, -80.584
1589.6000, -79.365
1589.7000, -82.508
1589.8000, -79.848
1589.9000, -79.504
1590.0000, -80.112
1590.1000, -79.876
1590.2000, -81.619
1590.3000, -80.157
1590.4000, -79.802
1590.5000, -82.493
1590.6000, -78.774
1590.7000, -86.939
1590.8000, -78.685
1590.9000, -80.996
1591.0000, -83.600
1591.1000, -78.664
1591.2000, -80.653
1591.3000, -79.819
1591.4000, -80.464
1591.5000, -77.331
1591.6000, -89.580
1591.7000, -79.474
1591.8000, -78.305
1591.9000, -83.871
1592.0000, -80.836
1592.1000, -83.484
1592.2000, -77.968
1592.3000, -81.905
1592.4000, -79.532
1592.5000, -79.531
1592.6000, -83.733
1592.7000, -83.088
1592.8000, -78.890
1592.9000, -78.554
1593.0000, -80.202
1593.1000, -82.341
1593.2000, -79.961
1593.3000, -78.266
1593.4000, -96.087
1593.5000, -80.478
1593.6000, -78.847
1593.7000, -81.616
1593.8000, -76.533
1593.9000, -80.075
1594.0000, -92.054
1594.1000, -79.045
1594.2000, -83.553
1594.3000, -77.183
1594.4000, -82.912
1594.5000, -82.460
1594.6000, -79.332
1594.7000, -79.110
1594.8000, -77.683
1594.9000, -79.938
1595.0000, -85.928
1595.1000, -80.744
1595.2000, -79.972
1595.3000, -82.574
1595.4000, -80.184
1595.5000, -83.010
1595.6000, -79.152
1595.7000, -79.765
1595.8000, -81.978
1595.9000, -79.388
1596.0000, -83.157
1596.1000, -83.456
1596.2000, -78.545
1596.3000, -78.181
1596.4000, -84.944
1596.5000, -79.974
1596.6000, -78.368
1596.7000, -82.366
1596.8000, -80.647
1596.9000, -80.395
1597.0000, -77.900
1597.1000, -82.629
1597.2000, -80.964
1597.3000, -80.349
1597.4000, -81.794
1597.5000, -81.318
1597.6000, -79.334
1597.7000, -78.428
1597.8000, -82.963
1597.9000, -80.544
1598.0000, -78.639
1598.1000, -80.635
1598.2000, -79.369
1598.3000, -80.076
1598.4000, -79.148
1598.5000, -83.161
1598.6000, -82.450
1598.7000, -77.794
1598.8000, -89.711
1598.9000, -78.217
1599.0000, -78.760
1599.1000, -79.650
1599.2000, -84.384
1599.3000, -79.279
1599.4000, -78.434
1599.5000, -84.329
1599.6000, -78.472
1599.7000, -91.179
1599.8000, -77.265
1599.9000, -84.561
1600.0000, -79.135
1600.1000, -78.852
1600.2000, -87.878
1600.3000, -79.785
1600.4000, -79.503
1600.5000, -81.986
1600.6000, -78.302
1600.7000, -81.015
1600.8000, -88.603
1600.9000, -77.391
1601.0000, -81.373
1601.1000, -81.716
1601.2000, -79.597
1601.3000, -83.293
1601.4000, -77.865
1601.5000, -81.066
1601.6000, -86.542
1601.7000, -79.498
1601.8000, -79.471
1601.9000, -79.267
1602.0000, -79.670
1602.1000, -80.139
1602.2000, -83.219
1602.3000, -79.163
1602.4000, -81.213
1602.5000, -81.313
1602.6000, -79.601
1602.7000, -79.853
1602.8000, -80.730
1602.9000, -80.565
1603.0000, -80.607
1603.1000, -80.883
1603.2000, -79.887
1603.3000, -80.059
1603.4000, -80.323
1603.5000, -79.792
1603.6000, -85.691
1603.7000, -78.742
1603.8000, -82.838
1603.9000, -81.362
1604.0000, -78.250
1604.1000, -81.624
1604.2000, -81.813
1604.3000, -78.899
1604.4000, -78.308
1604.5000,-210.000
1604.6000, -79.426
1604.7000, -82.180
1604.8000, -79.884
1604.9000, -82.468
1605.0000, -79.192
1605.1000, -79.764
1605.2000, -81.318
1605.3000, -81.723
1605.4000, -81.784
1605.5000, -81.876
1605.6000, -80.849
1605.7000, -78.637
1605.8000, -79.655
1605.9000, -84.216
1606.0000, -80.396
1606.1000, -80.383
1606.2000, -80.102
1606.3000, -80.256
1606.4000, -80.597
1606.5000, -78.749
1606.6000, -81.839
1606.7000, -79.776
1606.8000, -78.103
1606.9000,-210.000
1607.0000, -80.338
1607.1000, -80.919
1607.2000, -79.843
1607.3000, -79.564
1607.4000, -81.045
1607.5000, -82.125
1607.6000, -77.787
1607.7000, -81.138
1607.8000, -78.992
1607.9000, -79.925
1608.0000, -79.946
1608.1000, -79.964
1608.2000, -86.901
1608.3000, -79.442
1608.4000, -78.954
1608.5000, -81.638
1608.6000, -79.389
1608.7000, -80.705
1608.8000, -81.569
1608.9000, -80.427
1609.0000, -78.691
1609.1000, -79.963
1609.2000, -79.783
1609.3000, -80.777
1609.4000, -80.179
1609.5000, -81.251
1609.6000, -84.446
1609.7000, -80.578
1609.8000, -80.481
1609.9000, -80.421
1610.0000, -80.301
1610.1000, -80.487
1610.2000, -79.717
1610.3000, -80.089
1610.4000, -79.842
1610.5000, -83.255
1610.6000, -79.513
1610.7000, -80.998
1610.8000, -80.435
1610.9000, -80.585
1611.0000, -82.550
1611.1000, -78.568
1611.2000, -81.956
1611.3000, -79.307
1611.4000, -80.571
1611.5000, -80.738
1611.6000, -82.391
1611.7000, -78.114
1611.8000, -77.566
1611.9000, -88.749
1612.0000, -79.350
1612.1000, -83.559
1612.2000, -79.454
1612.3000, -81.958
1612.4000, -79.617
1612.5000, -80.128
1612.6000, -82.155
1612.7000, -82.007
1612.8000, -78.566
1612.9000, -83.395
1613.0000, -79.539
1613.1000, -77.014
1613.2000, -80.497
1613.3000, -85.064
1613.4000, -79.594
1613.5000, -80.443
1613.6000, -79.714
1613.7000, -79.948
1613.8000, -79.373
1613.9000, -81.372
1614.0000, -80.918
1614.1000, -80.600
1614.2000, -80.057
1614.3000, -79.525
1614.4000, -79.918
1614.5000, -80.972
1614.6000, -79.456
1614.7000, -80.569
1614.8000, -80.471
1614.9000, -80.341
1615.0000, -82.259
1615.1000, -77.648
1615.2000, -82.236
1615.3000, -78.195
1615.4000, -83.578
1615.5000, -80.068
1615.6000, -78.776
1615.7000, -80.042
1615.8000, -79.589
1615.9000, -81.456
1616.0000, -79.904
1616.1000, -81.896
1616.2000, -79.099
1616.3000, -78.426
1616.4000, -83.324
1616.5000, -77.234
1616.6000, -80.053
1616.7000, -80.730
1616.8000, -77.359
1616.9000, -79.141
1617.0000, -78.998
1617.1000, -78.708
1617.2000, -79.854
1617.3000, -78.721
1617.4000, -77.630
1617.5000, -78.293
1617.6000, -77.650
1617.7000, -79.290
1617.8000, -77.486
1617.9000, -79.598
1618.0000, -79.229
1618.1000, -77.711
1618.2000, -78.027
1618.3000, -78.024
1618.4000, -77.772
1618.5000, -77.410
1618.6000, -78.701
1618.7000, -77.985
1618.8000, -76.387
1618.9000, -76.318
1619.0000, -75.207
1619.1000, -78.745
1619.2000, -77.389
1619.3000, -75.898
1619.4000, -77.343
1619.5000, -76.352
1619.6000, -76.332
1619.7000, -78.235
1619.8000, -77.416
1619.9000, -75.991
1620.0000, -76.934
1620.1000, -78.809
1620.2000, -92.968
1620.3000, -78.390
1620.4000, -79.276
1620.5000, -79.740
1620.6000, -79.670
1620.7000, -86.934
1620.8000, -77.630
1620.9000, -79.509
1621.0000, -90.922
1621.1000, -79.771
1621.2000, -77.291
1621.3000, -81.802
1621.4000, -84.683
1621.5000, -78.883
1621.6000, -82.077
1621.7000, -80.836
1621.8000, -80.087
1621.9000, -80.414
1622.0000, -78.592
1622.1000, -79.427
1622.2000, -81.835
1622.3000, -79.531
1622.4000, -81.576
1622.5000, -80.375
1622.6000, -78.125
1622.7000, -85.485
1622.8000, -80.092
1622.9000, -79.100
1623.0000, -81.688
1623.1000, -80.847
1623.2000, -77.899
1623.3000, -83.139
1623.4000, -82.802
1623.5000, -79.060
1623.6000, -79.422
1623.7000, -85.031
1623.8000, -80.266
1623.9000, -79.627
1624.0000, -79.264
1624.1000, -87.917
1624.2000, -78.252
1624.3000,-210.000
1624.4000, -77.937
1624.5000, -84.795
1624.6000, -77.908
1624.7000, -82.098
1624.8000, -82.274
1624.9000, -78.544
1625.0000, -78.626
1625.1000, -79.956
1625.2000, -89.618
1625.3000, -78.980
1625.4000, -79.270
1625.5000, -80.766
1625.6000, -78.951
1625.7000, -81.771
1625.8000, -79.627
1625.9000, -80.515
1626.0000, -79.698
1626.1000, -80.036
1626.2000, -80.364
1626.3000, -79.663
1626.4000, -80.189
1626.5000, -79.750
1626.6000, -79.256
1626.7000, -79.665
1626.8000, -82.712
1626.9000, -78.438
1627.0000, -81.018
1627.1000, -80.500
1627.2000, -78.010
1627.3000, -80.039
1627.4000, -84.064
1627.5000, -78.981
1627.6000, -81.646
1627.7000, -79.533
1627.8000, -79.248
1627.9000, -79.183
1628.0000, -78.546
1628.1000, -80.939
1628.2000, -78.112
1628.3000, -79.675
1628.4000, -79.977
1628.5000, -79.852
1628.6000, -82.426
1628.7000, -80.204
1628.8000, -79.150
1628.9000, -79.869
1629.0000, -81.491
1629.1000, -79.416
1629.2000, -80.510
1629.3000, -79.995
1629.4000, -79.869
1629.5000, -81.718
1629.6000, -79.123
1629.7000, -77.943
1629.8000, -84.295
1629.9000, -77.904
1630.0000, -79.521
1630.1000, -80.755
1630.2000, -78.370
1630.3000, -78.048
1630.4000, -79.024
1630.5000, -78.838
1630.6000, -77.831
1630.7000,-106.018
1630.8000, -79.737
1630.9000, -82.970
1631.0000, -79.786
1631.1000, -79.792
1631.2000, -81.554
1631.3000, -80.418
1631.4000, -81.549
1631.5000, -81.309
1631.6000, -79.125
1631.7000, -76.882
1631.8000, -80.516
1631.9000, -79.320
1632.0000, -81.204
1632.1000, -78.499
1632.2000, -78.930
1632.3000, -79.859
1632.4000, -82.364
1632.5000, -78.966
1632.6000, -78.108
1632.7000, -78.314
1632.8000, -82.207
1632.9000, -83.158
1633.0000, -77.460
1633.1000, -79.317
1633.2000, -79.781
1633.3000, -81.696
1633.4000, -77.030
1633.5000,-210.000
1633.6000, -79.381
1633.7000, -78.115
1633.8000, -80.167
1633.9000, -78.616
1634.0000, -79.860
1634.1000, -80.999
1634.2000, -78.497
1634.3000, -78.533
1634.4000, -79.326
1634.5000, -79.708
1634.6000, -80.467
1634.7000, -78.664
1634.8000, -77.598
1634.9000, -81.587
1635.0000, -80.626
1635.1000, -78.913
1635.2000, -76.877
1635.3000, -79.304
1635.4000, -79.922
1635.5000, -89.080
1635.6000, -79.543
1635.7000, -79.024
1635.8000, -80.913
1635.9000, -77.195
1636.0000, -84.049
1636.1000, -79.087
1636.2000, -78.442
1636.3000, -80.650
1636.4000, -79.033
1636.5000, -79.267
1636.6000, -78.468
1636.7000, -80.045
1636.8000, -78.759
1636.9000, -77.365
1637.0000, -76.427
1637.1000, -76.763
1637.2000, -81.215
1637.3000, -78.978
1637.4000, -79.758
1637.5000, -78.906
1637.6000, -82.798
1637.7000, -78.623
1637.8000, -81.428
1637.9000, -76.109
1638.0000,-210.000
1638.1000, -78.160
1638.2000, -78.232
1638.3000, -79.242
1638.4000, -78.698
1638.5000, -81.666
1638.6000, -77.420
1638.7000, -77.056
1638.8000, -82.025
1638.9000, -78.829
1639.0000, -75.191
1639.1000, -77.959
1639.2000, -77.118
1639.3000, -80.507
1639.4000, -78.801
1639.5000, -79.246
1639.6000, -77.897
1639.7000, -77.436
1639.8000, -84.231
1639.9000, -77.804
1640.0000, -77.056
1640.1000, -75.825
1640.2000, -83.853
1640.3000, -75.793
1640.4000, -77.260
1640.5000, -81.340
1640.6000, -77.484
1640.7000, -77.583
1640.8000, -90.547
1640.9000, -76.819
1641.0000, -76.963
1641.1000, -76.773
1641.2000, -78.862
1641.3000, -78.236
1641.4000, -78.178
1641.5000, -82.409
1641.6000, -76.514
1641.7000, -79.693
1641.8000, -76.689
1641.9000, -77.117
1642.0000, -80.863
1642.1000, -74.990
1642.2000, -78.150
1642.3000, -81.435
1642.4000, -80.843
1642.5000, -79.880
1642.6000, -76.952
1642.7000, -79.564
1642.8000, -78.582
1642.9000, -75.358
1643.0000, -77.789
1643.1000, -77.351
1643.2000, -79.296
1643.3000, -76.572
1643.4000, -83.636
1643.5000, -75.508
1643.6000, -79.974
1643.7000, -76.011
1643.8000, -76.606
1643.9000, -75.694
1644.0000, -77.155
1644.1000, -75.836
1644.2000, -79.593
1644.3000, -81.713
1644.4000, -77.146
1644.5000, -79.058
1644.6000, -79.124
1644.7000, -80.225
1644.8000, -77.902
1644.9000, -77.285
1645.0000, -75.461
1645.1000, -86.423
1645.2000, -74.955
1645.3000,-210.000
1645.4000, -74.689
1645.5000, -74.358
1645.6000, -77.782
1645.7000, -87.069
1645.8000, -74.218
1645.9000, -77.013
1646.0000, -78.892
1646.1000, -80.633
1646.2000, -76.014
1646.3000, -78.477
1646.4000, -78.588
1646.5000, -76.371
1646.6000, -75.896
1646.7000, -76.385
1646.8000, -79.061
1646.9000, -77.620
1647.0000, -77.048
1647.1000, -77.470
1647.2000, -76.367
1647.3000, -77.823
1647.4000, -75.534
1647.5000, -76.708
1647.6000, -77.508
1647.7000, -76.321
1647.8000, -75.533
1647.9000, -76.809
1648.0000, -83.146
1648.1000, -76.991
1648.2000, -75.353
1648.3000, -76.725
1648.4000, -80.194
1648.5000, -78.260
1648.6000, -76.102
1648.7000,-210.000
1648.8000, -75.959
1648.9000, -75.177
1649.0000, -81.254
1649.1000, -75.766
1649.2000, -78.433
1649.3000, -75.021
1649.4000, -75.212
1649.5000, -78.381
1649.6000, -75.636
1649.7000, -74.843
1649.8000, -75.562
1649.9000, -76.010
1650.0000, -76.753
1650.1000, -84.149
1650.2000, -74.279
1650.3000, -74.566
1650.4000, -74.330
1650.5000, -77.645
1650.6000, -79.163
1650.7000, -74.236
1650.8000, -75.604
1650.9000, -73.134
1651.0000, -75.083
1651.1000,-210.000
1651.2000, -75.479
1651.3000, -73.800
1651.4000, -79.005
1651.5000, -73.270
1651.6000, -79.910
1651.7000, -73.134
1651.8000, -74.780
1651.9000, -78.047
1652.0000, -76.210
1652.1000, -75.334
1652.2000, -75.388
1652.3000, -76.446
1652.4000, -75.178
1652.5000, -75.618
1652.6000, -76.527
1652.7000, -75.449
1652.8000, -72.784
1652.9000, -79.318
1653.0000, -76.264
1653.1000, -73.236
1653.2000, -74.751
1653.3000, -74.593
1653.4000, -78.297
1653.5000, -74.894
1653.6000, -78.145
1653.7000, -72.647
1653.8000, -75.817
1653.9000, -74.903
1654.0000, -75.377
1654.1000, -74.992
1654.2000, -73.859
1654.3000, -80.572
1654.4000, -73.246
1654.5000, -75.306
1654.6000, -75.741
1654.7000, -73.308
1654.8000, -75.933
1654.9000, -75.481
1655.0000, -80.248
1655.1000, -73.502
1655.2000, -72.123
1655.3000, -76.172
1655.4000, -72.260
1655.5000, -75.372
1655.6000, -74.815
1655.7000, -77.108
1655.8000, -72.572
1655.9000, -73.983
1656.0000, -76.177
1656.1000, -71.947
1656.2000, -76.527
1656.3000, -77.335
1656.4000, -71.675
1656.5000, -73.856
1656.6000, -78.316
1656.7000, -90.367
1656.8000, -72.301
1656.9000, -72.014
1657.0000, -76.686
1657.1000, -74.486
1657.2000, -77.209
1657.3000, -71.638
1657.4000, -74.508
1657.5000, -81.860
1657.6000, -73.265
1657.7000, -73.729
1657.8000, -73.200
1657.9000, -72.278
1658.0000, -76.854
1658.1000, -73.377
1658.2000, -78.308
1658.3000, -73.137
1658.4000, -71.976
1658.5000, -76.061
1658.6000, -73.746
1658.7000, -72.786
1658.8000, -74.034
1658.9000, -76.062
1659.0000, -74.514
1659.1000, -73.997
1659.2000, -73.141
1659.3000, -78.602
1659.4000, -71.583
1659.5000, -74.014
1659.6000, -72.871
1659.7000, -74.770
1659.8000, -73.870
1659.9000, -72.801
1660.0000, -74.968
1660.1000, -73.885
1660.2000, -71.107
1660.3000, -73.527
1660.4000, -81.855
1660.5000, -74.940
1660.6000, -72.294
1660.7000, -72.300
1660.8000,-210.000
1660.9000, -72.928
1661.0000, -71.669
1661.1000, -74.655
1661.2000, -73.392
1661.3000, -70.517
1661.4000, -76.624
1661.5000, -74.403
1661.6000, -72.463
1661.7000, -72.750
1661.8000, -75.894
1661.9000, -72.635
1662.0000, -75.900
1662.1000, -75.492
1662.2000, -70.817
1662.3000, -73.016
1662.4000, -75.708
1662.5000, -75.446
1662.6000, -74.312
1662.7000, -72.581
1662.8000, -72.960
1662.9000, -72.328
1663.0000, -76.548
1663.1000, -74.952
1663.2000, -69.978
1663.3000, -77.423
1663.4000, -72.911
1663.5000, -73.435
1663.6000, -72.836
1663.7000, -73.340
1663.8000, -71.793
1663.9000, -72.519
1664.0000, -76.392
1664.1000, -73.994
1664.2000, -71.571
1664.3000, -70.950
1664.4000, -77.837
1664.5000, -72.203
1664.6000, -74.571
1664.7000, -71.937
1664.8000, -72.444
1664.9000, -70.679
1665.0000, -77.793
1665.1000, -73.682
1665.2000, -70.949
1665.3000, -72.624
1665.4000,-210.000
1665.5000, -74.747
1665.6000, -71.511
1665.7000, -72.779
1665.8000, -74.044
1665.9000, -70.091
1666.0000, -73.133
1666.1000, -70.951
1666.2000, -72.637
1666.3000, -74.720
1666.4000, -70.526
1666.5000, -73.783
1666.6000, -71.390
1666.7000, -70.754
1666.8000, -75.634
1666.9000, -75.953
1667.0000, -73.634
1667.1000, -73.076
1667.2000, -72.079
1667.3000, -72.327
1667.4000, -72.505
1667.5000, -74.920
1667.6000, -72.001
1667.7000, -72.228
1667.8000, -72.939
1667.9000, -70.455
1668.0000, -70.746
1668.1000, -74.074
1668.2000, -72.995
1668.3000, -71.219
1668.4000, -72.914
1668.5000, -71.543
1668.6000, -73.211
1668.7000, -70.781
1668.8000, -74.613
1668.9000, -73.975
1669.0000, -73.215
1669.1000, -71.648
1669.2000, -71.441
1669.3000, -74.341
1669.4000, -72.677
1669.5000, -73.565
1669.6000, -69.536
1669.7000, -69.890
1669.8000, -71.563
1669.9000, -70.184
1670.0000, -71.902
1670.1000, -74.787
1670.2000, -74.603
1670.3000, -71.586
1670.4000, -72.523
1670.5000, -69.567
1670.6000, -72.517
1670.7000, -72.898
1670.8000, -73.910
1670.9000, -72.014
1671.0000, -70.929
1671.1000, -69.377
1671.2000, -75.809
1671.3000, -71.082
1671.4000, -75.353
1671.5000, -70.746
1671.6000, -70.217
1671.7000,-210.000
1671.8000, -68.519
1671.9000, -71.020
1672.0000, -69.201
1672.1000,-210.000
1672.2000,-210.000
1672.3000,-210.000
1672.4000, -69.154
1672.5000, -73.854
1672.6000, -71.355
1672.7000, -70.616
1672.8000, -75.500
1672.9000, -71.160
1673.0000, -70.377
1673.1000, -72.724
1673.2000, -77.019
1673.3000, -69.549
1673.4000, -71.202
1673.5000, -73.729
1673.6000, -68.888
1673.7000, -70.972
1673.8000, -69.215
1673.9000, -70.184
1674.0000, -67.013
1674.1000, -73.412
1674.2000, -70.567
1674.3000, -68.274
1674.4000, -73.636
1674.5000, -71.183
1674.6000, -70.548
1674.7000, -71.270
1674.8000, -70.397
1674.9000, -71.091
1675.0000, -70.196
1675.1000,-210.000
1675.2000, -71.706
1675.3000, -73.222
1675.4000, -67.526
1675.5000,-210.000
1675.6000, -72.928
1675.7000, -70.089
1675.8000, -71.294
1675.9000, -72.002
1676.0000, -68.692
1676.1000, -70.002
1676.2000, -71.440
1676.3000, -68.642
1676.4000, -72.587
1676.5000, -73.402
1676.6000, -81.918
1676.7000, -67.177
1676.8000, -79.928
1676.9000, -68.652
1677.0000, -72.320
1677.1000, -71.234
1677.2000, -70.555
1677.3000, -70.714
1677.4000, -72.010
1677.5000, -69.078
1677.6000, -69.372
1677.7000, -70.202
1677.8000, -84.147
1677.9000, -70.119
1678.0000, -69.986
1678.1000, -69.951
1678.2000, -69.548
1678.3000, -71.386
1678.4000, -69.233
1678.5000, -68.127
1678.6000, -70.541
1678.7000, -68.290
1678.8000, -69.144
1678.9000, -71.031
1679.0000, -71.851
1679.1000, -71.453
1679.2000, -68.260
1679.3000, -67.754
1679.4000, -70.217
1679.5000,-210.000
1679.6000, -68.472
1679.7000, -69.546
1679.8000, -71.232
1679.9000, -68.160
1680.0000, -70.783
1680.1000, -69.674
1680.2000, -65.888
1680.3000, -72.432
1680.4000, -67.546
1680.5000, -71.107
1680.6000, -72.675
1680.7000, -67.428
1680.8000, -71.125
1680.9000, -71.135
1681.0000, -68.853
1681.1000, -67.832
1681.2000, -69.157
1681.3000, -70.320
1681.4000, -68.417
1681.5000, -71.530
1681.6000, -68.000
1681.7000, -69.546
1681.8000, -73.413
1681.9000, -67.041
1682.0000, -64.967
1682.1000,-210.000
1682.2000, -68.012
1682.3000, -70.135
1682.4000, -71.624
1682.5000, -67.425
1682.6000, -74.281
1682.7000, -67.670
1682.8000, -69.489
1682.9000, -70.891
1683.0000, -65.829
1683.1000,-210.000
1683.2000, -65.543
1683.3000, -66.864
1683.4000,-210.000
1683.5000, -64.683
1683.6000, -66.258
1683.7000,-210.000
1683.8000, -73.290
1683.9000, -69.849
1684.0000, -68.271
1684.1000, -68.402
1684.2000, -70.703
1684.3000, -68.360
1684.4000, -68.450
1684.5000, -70.090
1684.6000, -79.138
1684.7000, -65.656
1684.8000, -74.979
1684.9000, -67.286
1685.0000, -66.479
1685.1000, -68.610
1685.2000, -65.136
1685.3000, -78.080
1685.4000, -67.155
1685.5000, -68.366
1685.6000, -68.217
1685.7000, -67.312
1685.8000, -67.934
1685.9000, -79.795
1686.0000, -75.478
1686.1000, -68.052
1686.2000, -65.577
1686.3000,-210.000
1686.4000, -70.703
1686.5000, -69.906
1686.6000, -64.434
1686.7000, -76.174
1686.8000, -70.113
1686.9000, -70.654
1687.0000, -69.797
1687.1000, -70.129
1687.2000, -66.574
1687.3000, -67.726
1687.4000, -82.756
1687.5000, -64.139
1687.6000,-210.000
1687.7000, -68.751
1687.8000, -74.951
1687.9000, -65.383
1688.0000, -69.945
1688.1000, -66.178
1688.2000, -65.941
1688.3000, -71.961
1688.4000, -68.415
1688.5000, -68.669
1688.6000, -68.230
1688.7000, -69.967
1688.8000, -67.749
1688.9000, -65.462
1689.0000, -66.471
1689.1000, -66.866
1689.2000, -74.412
1689.3000, -65.981
1689.4000, -68.344
1689.5000, -64.627
1689.6000, -71.696
1689.7000, -68.319
1689.8000, -68.613
1689.9000, -71.661
1690.0000, -67.819
1690.1000, -67.950
1690.2000, -68.820
1690.3000, -66.563
1690.4000, -67.418
1690.5000, -65.255
1690.6000, -68.219
1690.7000, -69.303
1690.8000, -65.581
1690.9000, -65.844
1691.0000, -68.362
1691.1000, -66.977
1691.2000, -64.736
1691.3000, -65.517
1691.4000, -73.212
1691.5000, -70.023
1691.6000, -65.709
1691.7000, -66.979
1691.8000, -67.195
1691.9000, -66.648
1692.0000, -66.165
1692.1000, -66.123
1692.2000, -68.449
1692.3000, -64.801
1692.4000, -68.968
1692.5000, -64.218
1692.6000, -68.131
1692.7000, -67.038
1692.8000, -63.826
1692.9000, -63.964
1693.0000,-210.000
1693.1000, -65.431
1693.2000, -64.628
1693.3000, -64.642
1693.4000, -85.251
1693.5000, -64.774
1693.6000, -64.607
1693.7000, -66.582
1693.8000, -67.979
1693.9000, -64.667
1694.0000, -63.746
1694.1000, -71.612
1694.2000, -64.110
1694.3000, -62.669
1694.4000, -67.156
1694.5000, -61.677
1694.6000,-210.000
1694.7000, -67.869
1694.8000, -65.289
1694.9000, -68.572
1695.0000, -75.832
1695.1000, -62.666
1695.2000,-210.000
1695.3000, -63.558
1695.4000, -68.386
1695.5000, -65.286
1695.6000, -66.234
1695.7000, -62.152
1695.8000,-210.000
1695.9000, -66.662
1696.0000, -62.685
1696.1000, -73.320
1696.2000, -66.523
1696.3000, -64.966
1696.4000, -63.585
1696.5000,-210.000
1696.6000, -66.284
1696.7000, -64.220
1696.8000, -68.472
1696.9000, -64.576
1697.0000, -67.574
1697.1000, -66.443
1697.2000, -65.772
1697.3000, -63.369
1697.4000, -63.322
1697.5000, -63.123
1697.6000, -66.431
1697.7000, -70.328
1697.8000, -66.643
1697.9000, -64.169
1698.0000, -69.795
1698.1000, -61.438
1698.2000, -63.889
1698.3000, -69.150
1698.4000, -64.242
1698.5000, -66.171
1698.6000, -66.597
1698.7000, -73.613
1698.8000, -64.176
1698.9000, -65.108
1699.0000, -63.858
1699.1000, -61.695
1699.2000, -70.313
1699.3000, -62.358
1699.4000,-210.000
1699.5000, -64.117
1699.6000, -64.276
1699.7000, -68.490
1699.8000, -63.536
1699.9000, -62.970
1700.0000,-210.000
