70BCSV 	
// AQ6370B OPTICAL SPECTRUM ANALYZER //                 
25
"CTRWL",1550.000000
"SPAN", 100.000000
"START WL",1500.000000
"STOP WL",1600.000000
"WLFREQ", 0
"REFL",-58.5
"LSCL", 5.0
"RESLN",0.500
"AVG",   1
"SMPLAUTO",      0
"SMPL",       2500
"SMPLINTVL",0.0400
"HIGH1"
"MEAS"
"LSUNT",0
"NMSKH","OFF"
"RESCOR",0
"RESPARM", 9740
"FREQPARM", 9740






"[TRACE DATA]"
1500.0000, -83.587
1500.0400, -82.941
1500.0800, -84.582
1500.1200, -84.397
1500.1601, -87.613
1500.2001, -92.483
1500.2401, -82.634
1500.2801, -88.886
1500.3201, -83.374
1500.3601, -83.862
1500.4002,-210.000
1500.4402, -96.090
1500.4802, -82.920
1500.5202, -84.501
1500.5602,-105.259
1500.6002, -98.052
1500.6403, -84.078
1500.6803, -85.551
1500.7203, -81.782
1500.7603,-210.000
1500.8003, -81.866
1500.8403,-210.000
1500.8804, -83.396
1500.9204, -88.586
1500.9604, -83.821
1501.0004, -84.743
1501.0404, -81.957
1501.0804, -84.681
1501.1204, -91.997
1501.1605, -88.666
1501.2005, -85.980
1501.2405, -84.313
1501.2805, -86.243
1501.3205, -91.141
1501.3605, -82.600
1501.4006, -84.793
1501.4406, -94.859
1501.4806,-210.000
1501.5206, -86.111
1501.5606, -83.781
1501.6006, -86.927
1501.6407, -89.567
1501.6807, -85.363
1501.7207, -85.194
1501.7607, -91.477
1501.8007, -81.929
1501.8407, -82.677
1501.8808, -85.017
1501.9208, -82.726
1501.9608, -92.052
1502.0008, -84.687
1502.0408, -85.455
1502.0808, -83.644
1502.1208, -85.014
1502.1609,-210.000
1502.2009, -94.804
1502.2409, -81.773
1502.2809,-210.000
1502.3209, -83.326
1502.3609, -82.145
1502.4010,-210.000
1502.4410, -84.161
1502.4810, -83.378
1502.5210, -85.471
1502.5610, -81.999
1502.6010,-210.000
1502.6411, -83.033
1502.6811,-210.000
1502.7211, -81.766
1502.7611, -86.082
1502.8011, -85.866
1502.8411, -83.368
1502.8812, -89.936
1502.9212, -81.471
1502.9612, -92.278
1503.0012, -81.793
1503.0412, -83.942
1503.0812, -90.273
1503.1212,-210.000
1503.1613, -84.173
1503.2013, -84.965
1503.2413, -86.159
1503.2813,-210.000
1503.3213, -82.876
1503.3613, -88.879
1503.4014, -81.569
1503.4414, -86.603
1503.4814, -83.761
1503.5214, -86.246
1503.5614, -96.908
1503.6014, -86.133
1503.6415, -84.485
1503.6815, -81.409
1503.7215, -84.330
1503.7615, -85.459
1503.8015, -85.703
1503.8415, -85.879
1503.8816, -89.868
1503.9216, -83.710
1503.9616, -82.378
1504.0016,-210.000
1504.0416, -82.340
1504.0816, -83.472
1504.1216,-210.000
1504.1617, -80.664
1504.2017, -91.249
1504.2417, -82.636
1504.2817, -86.396
1504.3217, -85.827
1504.3617, -82.858
1504.4018, -85.910
1504.4418,-210.000
1504.4818, -83.283
1504.5218, -83.541
1504.5618,-210.000
1504.6018, -83.645
1504.6419, -86.326
1504.6819, -81.556
1504.7219,-210.000
1504.7619, -82.236
1504.8019,-210.000
1504.8419,-210.000
1504.8820, -84.720
1504.9220, -81.253
1504.9620, -89.821
1505.0020, -85.649
1505.0420, -82.354
1505.0820, -88.761
1505.1220, -85.561
1505.1621, -85.804
1505.2021, -84.005
1505.2421, -83.577
1505.2821, -82.712
1505.3221, -87.040
1505.3621, -83.253
1505.4022,-101.694
1505.4422, -84.927
1505.4822, -86.839
1505.5222, -82.649
1505.5622, -86.966
1505.6022, -82.562
1505.6423, -88.552
1505.6823, -84.016
1505.7223, -85.606
1505.7623, -91.615
1505.8023, -84.062
1505.8423, -86.741
1505.8824, -86.127
1505.9224, -85.157
1505.9624, -82.742
1506.0024, -83.093
1506.0424, -82.866
1506.0824, -92.964
1506.1224, -86.834
1506.1625, -89.608
1506.2025, -81.387
1506.2425, -88.568
1506.2825, -81.546
1506.3225, -83.213
1506.3625, -93.371
1506.4026, -87.973
1506.4426, -99.284
1506.4826, -84.501
1506.5226, -82.451
1506.5626, -88.666
1506.6026, -82.190
1506.6427, -88.061
1506.6827, -85.643
1506.7227, -88.064
1506.7627, -91.072
1506.8027, -84.068
1506.8427, -83.734
1506.8828, -92.599
1506.9228, -85.194
1506.9628, -83.376
1507.0028, -84.866
1507.0428, -87.907
1507.0828, -84.279
1507.1228,-210.000
1507.1629, -81.137
1507.2029, -88.207
1507.2429, -85.836
1507.2829, -83.530
1507.3229,-210.000
1507.3629, -84.452
1507.4030, -87.376
1507.4430, -85.453
1507.4830, -86.642
1507.5230, -85.139
1507.5630, -84.668
1507.6030, -81.671
1507.6431, -95.993
1507.6831, -86.962
1507.7231, -84.053
1507.7631, -81.993
1507.8031, -90.739
1507.8431, -86.972
1507.8832, -84.593
1507.9232, -80.723
1507.9632,-210.000
1508.0032, -85.130
1508.0432, -84.405
1508.0832,-210.000
1508.1232,-210.000
1508.1633, -84.528
1508.2033, -84.781
1508.2433, -86.563
1508.2833, -83.499
1508.3233, -84.891
1508.3633, -83.961
1508.4034, -83.285
1508.4434, -83.437
1508.4834,-210.000
1508.5234, -81.453
1508.5634, -91.546
1508.6034, -84.678
1508.6435, -83.554
1508.6835,-101.665
1508.7235, -85.083
1508.7635,-210.000
1508.8035, -91.517
1508.8435, -83.412
1508.8836, -86.238
1508.9236, -82.080
1508.9636, -90.818
1509.0036, -82.748
1509.0436, -85.926
1509.0836, -85.116
1509.1236, -82.683
1509.1637,-210.000
1509.2037, -81.199
1509.2437, -89.014
1509.2837,-210.000
1509.3237, -83.280
1509.3637,-210.000
1509.4038, -83.801
1509.4438, -86.964
1509.4838, -96.596
1509.5238, -82.892
1509.5638, -86.301
1509.6038, -84.243
1509.6439,-210.000
1509.6839, -82.455
1509.7239, -84.517
1509.7639, -96.076
1509.8039, -83.655
1509.8439, -81.662
1509.8840, -83.435
1509.9240, -88.525
1509.9640, -84.561
1510.0040, -84.170
1510.0440,-210.000
1510.0840, -86.244
1510.1240, -85.108
1510.1641, -84.926
1510.2041, -84.159
1510.2441, -84.009
1510.2841, -83.656
1510.3241, -83.048
1510.3641, -83.031
1510.4042, -88.674
1510.4442, -93.036
1510.4842, -87.867
1510.5242, -89.305
1510.5642, -83.047
1510.6042, -85.272
1510.6443, -83.519
1510.6843, -88.805
1510.7243, -82.927
1510.7643, -86.366
1510.8043, -86.763
1510.8443, -84.245
1510.8844, -85.200
1510.9244, -86.721
1510.9644, -84.937
1511.0044, -83.682
1511.0444, -85.971
1511.0844, -81.846
1511.1244, -83.066
1511.1645, -84.955
1511.2045, -85.958
1511.2445, -85.094
1511.2845,-210.000
1511.3245, -82.925
1511.3645, -85.118
1511.4046, -86.269
1511.4446, -83.913
1511.4846, -84.031
1511.5246, -87.300
1511.5646, -82.309
1511.6046, -83.733
1511.6447, -82.407
1511.6847, -85.267
1511.7247, -83.223
1511.7647, -81.639
1511.8047,-210.000
1511.8447, -85.506
1511.8848, -83.953
1511.9248, -86.274
1511.9648, -81.149
1512.0048,-210.000
1512.0448, -83.325
1512.0848, -90.951
1512.1248, -82.266
1512.1649, -82.969
1512.2049, -85.638
1512.2449, -84.767
1512.2849, -84.365
1512.3249, -82.622
1512.3649, -83.159
1512.4050, -84.306
1512.4450, -86.015
1512.4850, -83.123
1512.5250, -99.559
1512.5650, -81.692
1512.6050, -82.949
1512.6451,-210.000
1512.6851, -90.948
1512.7251, -83.374
1512.7651, -84.702
1512.8051, -90.989
1512.8451, -83.830
1512.8852, -85.430
1512.9252, -83.138
1512.9652, -87.546
1513.0052, -83.264
1513.0452, -83.327
1513.0852, -82.744
1513.1253, -84.037
1513.1653, -84.763
1513.2053, -86.317
1513.2453, -81.844
1513.2853, -89.560
1513.3253, -88.027
1513.3653, -81.406
1513.4054, -83.481
1513.4454, -86.759
1513.4854, -92.061
1513.5254, -86.624
1513.5654, -83.793
1513.6054, -89.230
1513.6455, -83.344
1513.6855, -87.967
1513.7255, -82.137
1513.7655,-210.000
1513.8055, -82.171
1513.8455, -82.484
1513.8856, -85.184
1513.9256, -83.496
1513.9656, -84.168
1514.0056, -81.612
1514.0456, -85.625
1514.0856, -85.607
1514.1257, -84.036
1514.1657, -80.436
1514.2057, -83.513
1514.2457,-210.000
1514.2857, -82.585
1514.3257,-210.000
1514.3657, -82.414
1514.4058, -85.743
1514.4458, -84.268
1514.4858, -81.056
1514.5258, -88.433
1514.5658, -82.976
1514.6058, -83.367
1514.6459, -83.624
1514.6859, -82.752
1514.7259, -83.488
1514.7659, -85.046
1514.8059, -83.138
1514.8459, -81.610
1514.8860, -91.161
1514.9260, -84.396
1514.9660, -83.216
1515.0060, -85.433
1515.0460, -85.621
1515.0860, -81.644
1515.1261, -84.088
1515.1661, -82.813
1515.2061, -84.881
1515.2461, -85.968
1515.2861, -85.240
1515.3261, -86.505
1515.3661, -84.663
1515.4062, -83.843
1515.4462, -90.667
1515.4862, -82.919
1515.5262, -81.799
1515.5662, -82.007
1515.6062, -81.381
1515.6463, -86.799
1515.6863, -82.498
1515.7263, -85.446
1515.7663, -83.119
1515.8063, -84.362
1515.8463,-210.000
1515.8864, -80.675
1515.9264, -84.218
1515.9664,-210.000
1516.0064, -82.692
1516.0464, -85.903
1516.0864, -84.368
1516.1265, -83.724
1516.1665, -84.936
1516.2065, -86.821
1516.2465, -88.280
1516.2865, -84.030
1516.3265, -83.189
1516.3665, -86.254
1516.4066, -84.675
1516.4466, -83.768
1516.4866, -86.457
1516.5266, -82.431
1516.5666,-210.000
1516.6066, -83.152
1516.6467,-210.000
1516.6867, -82.941
1516.7267, -88.296
1516.7667, -84.702
1516.8067, -85.472
1516.8467, -83.382
1516.8868, -94.149
1516.9268, -83.194
1516.9668, -85.724
1517.0068, -88.745
1517.0468, -82.742
1517.0868, -83.903
1517.1269, -84.877
1517.1669, -82.709
1517.2069, -83.694
1517.2469,-210.000
1517.2869, -85.292
1517.3269, -87.394
1517.3669, -83.051
1517.4070,-210.000
1517.4470, -82.188
1517.4870, -86.075
1517.5270, -84.104
1517.5670, -84.311
1517.6070, -90.607
1517.6471, -83.894
1517.6871,-210.000
1517.7271, -84.898
1517.7671, -83.884
1517.8071, -87.065
1517.8471, -85.523
1517.8872, -82.482
1517.9272, -88.168
1517.9672, -86.032
1518.0072, -88.989
1518.0472,-210.000
1518.0872, -82.356
1518.1273, -84.165
1518.1673, -83.090
1518.2073,-210.000
1518.2473, -81.771
1518.2873, -83.340
1518.3273, -83.042
1518.3673, -89.590
1518.4074, -83.346
1518.4474, -85.754
1518.4874, -83.706
1518.5274, -84.571
1518.5674, -84.633
1518.6074, -84.175
1518.6475, -80.657
1518.6875,-210.000
1518.7275, -83.159
1518.7675, -84.924
1518.8075, -85.979
1518.8475, -93.035
1518.8876, -83.500
1518.9276, -83.894
1518.9676, -84.750
1519.0076, -86.467
1519.0476, -84.639
1519.0876, -91.020
1519.1277, -82.671
1519.1677, -83.912
1519.2077, -87.117
1519.2477, -84.734
1519.2877, -84.390
1519.3277, -83.601
1519.3677, -88.434
1519.4078, -82.062
1519.4478, -93.733
1519.4878, -83.577
1519.5278, -83.849
1519.5678, -84.873
1519.6078, -85.316
1519.6479, -87.811
1519.6879, -83.830
1519.7279, -87.772
1519.7679, -82.143
1519.8079, -86.752
1519.8479, -83.944
1519.8880,-104.983
1519.9280, -83.236
1519.9680, -84.086
1520.0080, -84.591
1520.0480, -84.200
1520.0880,-210.000
1520.1281, -82.577
1520.1681, -89.756
1520.2081, -81.252
1520.2481,-210.000
1520.2881, -91.018
1520.3281, -81.751
1520.3681, -85.409
1520.4082, -82.451
1520.4482, -82.027
1520.4882, -89.922
1520.5282, -85.191
1520.5682, -82.616
1520.6082, -85.960
1520.6483, -90.475
1520.6883, -80.426
1520.7283, -87.084
1520.7683, -80.720
1520.8083, -89.241
1520.8483, -81.716
1520.8884, -92.105
1520.9284, -81.168
1520.9684, -87.930
1521.0084, -83.459
1521.0484, -83.049
1521.0884, -83.868
1521.1285, -82.394
1521.1685, -84.040
1521.2085, -82.240
1521.2485, -83.496
1521.2885, -84.075
1521.3285, -81.826
1521.3685, -83.073
1521.4086, -83.204
1521.4486, -83.266
1521.4886, -88.923
1521.5286, -88.810
1521.5686, -92.228
1521.6086, -83.241
1521.6487, -81.576
1521.6887, -82.022
1521.7287, -88.777
1521.7687, -82.774
1521.8087, -83.162
1521.8487, -83.636
1521.8888, -85.299
1521.9288, -82.043
1521.9688, -83.687
1522.0088, -83.938
1522.0488, -82.466
1522.0888, -81.197
1522.1289,-210.000
1522.1689, -83.148
1522.2089, -83.912
1522.2489, -82.775
1522.2889, -81.731
1522.3289, -81.843
1522.3689, -84.433
1522.4090, -83.762
1522.4490, -85.251
1522.4890, -83.503
1522.5290, -85.107
1522.5690, -83.025
1522.6090, -82.769
1522.6491, -83.112
1522.6891, -79.858
1522.7291, -84.444
1522.7691, -80.551
1522.8091, -82.145
1522.8491, -80.884
1522.8892, -84.260
1522.9292, -79.400
1522.9692, -79.809
1523.0092, -80.569
1523.0492, -79.456
1523.0892, -80.056
1523.1293, -79.627
1523.1693, -79.578
1523.2093, -79.001
1523.2493, -80.214
1523.2893, -77.864
1523.3293, -78.991
1523.3693, -77.702
1523.4094, -79.189
1523.4494, -78.427
1523.4894, -77.272
1523.5294, -78.817
1523.5694, -76.620
1523.6094, -77.572
1523.6495, -77.242
1523.6895, -76.367
1523.7295, -77.362
1523.7695, -77.289
1523.8095, -76.905
1523.8495, -76.904
1523.8896, -77.422
1523.9296, -76.104
1523.9696, -76.737
1524.0096, -76.658
1524.0496, -76.148
1524.0896, -75.775
1524.1297, -75.902
1524.1697, -75.856
1524.2097, -75.277
1524.2497, -76.325
1524.2897, -75.720
1524.3297, -75.590
1524.3697, -75.279
1524.4098, -75.719
1524.4498, -74.521
1524.4898, -75.901
1524.5298, -75.659
1524.5698, -75.172
1524.6098, -75.409
1524.6499, -75.174
1524.6899, -75.146
1524.7299, -75.021
1524.7699, -75.981
1524.8099, -76.005
1524.8499, -75.024
1524.8900, -75.609
1524.9300, -75.196
1524.9700, -75.805
1525.0100, -75.309
1525.0500, -75.973
1525.0900, -75.914
1525.1301, -76.078
1525.1701, -76.406
1525.2101, -76.088
1525.2501, -76.659
1525.2901, -76.721
1525.3301, -76.054
1525.3701, -76.862
1525.4102, -77.189
1525.4502, -77.816
1525.4902, -76.347
1525.5302, -77.657
1525.5702, -76.895
1525.6102, -76.893
1525.6503, -77.245
1525.6903, -77.995
1525.7303, -76.743
1525.7703, -76.502
1525.8103, -76.902
1525.8503, -76.454
1525.8904, -75.882
1525.9304, -75.149
1525.9704, -74.799
1526.0104, -74.889
1526.0504, -74.576
1526.0904, -74.162
1526.1305, -73.552
1526.1705, -73.134
1526.2105, -72.664
1526.2505, -72.263
1526.2905, -71.708
1526.3305, -71.237
1526.3705, -70.976
1526.4106, -70.783
1526.4506, -70.239
1526.4906, -69.748
1526.5306, -69.467
1526.5706, -69.085
1526.6106, -68.761
1526.6507, -68.381
1526.6907, -68.225
1526.7307, -67.913
1526.7707, -67.475
1526.8107, -67.305
1526.8507, -67.036
1526.8908, -66.819
1526.9308, -66.679
1526.9708, -66.464
1527.0108, -66.196
1527.0508, -66.148
1527.0908, -65.994
1527.1309, -65.796
1527.1709, -65.533
1527.2109, -65.501
1527.2509, -65.359
1527.2909, -65.172
1527.3309, -65.058
1527.3709, -64.901
1527.4110, -64.827
1527.4510, -64.695
1527.4910, -64.644
1527.5310, -64.480
1527.5710, -64.424
1527.6110, -64.378
1527.6511, -64.277
1527.6911, -64.196
1527.7311, -64.190
1527.7711, -64.130
1527.8111, -63.996
1527.8511, -63.960
1527.8912, -63.896
1527.9312, -63.883
1527.9712, -63.776
1528.0112, -63.721
1528.0512, -63.684
1528.0912, -63.566
1528.1313, -63.532
1528.1713, -63.454
1528.2113, -63.345
1528.2513, -63.247
1528.2913, -63.178
1528.3313, -63.109
1528.3713, -62.976
1528.4114, -62.875
1528.4514, -62.711
1528.4914, -62.605
1528.5314, -62.502
1528.5714, -62.328
1528.6114, -62.192
1528.6515, -62.099
1528.6915, -61.951
1528.7315, -61.878
1528.7715, -61.769
1528.8115, -61.640
1528.8515, -61.589
1528.8916, -61.515
1528.9316, -61.477
1528.9716, -61.426
1529.0116, -61.377
1529.0516, -61.367
1529.0916, -61.338
1529.1317, -61.312
1529.1717, -61.300
1529.2117, -61.303
1529.2517, -61.288
1529.2917, -61.291
1529.3317, -61.280
1529.3717, -61.286
1529.4118, -61.277
1529.4518, -61.257
1529.4918, -61.296
1529.5318, -61.253
1529.5718, -61.271
1529.6118, -61.263
1529.6519, -61.265
1529.6919, -61.241
1529.7319, -61.185
1529.7719, -61.167
1529.8119, -61.119
1529.8519, -61.075
1529.8920, -61.017
1529.9320, -60.956
1529.9720, -60.896
1530.0120, -60.833
1530.0520, -60.764
1530.0920, -60.695
1530.1321, -60.614
1530.1721, -60.558
1530.2121, -60.474
1530.2521, -60.417
1530.2921, -60.304
1530.3321, -60.237
1530.3721, -60.157
1530.4122, -60.127
1530.4522, -60.075
1530.4922, -60.026
1530.5322, -60.001
1530.5722, -59.982
1530.6122, -59.987
1530.6523, -59.978
1530.6923, -59.997
1530.7323, -60.047
1530.7723, -60.090
1530.8123, -60.165
1530.8523, -60.253
1530.8924, -60.364
1530.9324, -60.485
1530.9724, -60.672
1531.0124, -60.815
1531.0524, -61.004
1531.0924, -61.217
1531.1325, -61.481
1531.1725, -61.739
1531.2125, -62.059
1531.2525, -62.316
1531.2925, -62.617
1531.3325, -62.927
1531.3725, -63.298
1531.4126, -63.643
1531.4526, -63.934
1531.4926, -64.381
1531.5326, -64.771
1531.5726, -65.115
1531.6126, -65.510
1531.6527, -65.931
1531.6927, -66.336
1531.7327, -66.576
1531.7727, -66.968
1531.8127, -67.120
1531.8527, -67.363
1531.8928, -67.496
1531.9328, -67.385
1531.9728, -67.426
1532.0128, -67.317
1532.0528, -67.234
1532.0928, -66.978
1532.1329, -66.788
1532.1729, -66.589
1532.2129, -66.383
1532.2529, -66.177
1532.2929, -65.960
1532.3329, -65.830
1532.3729, -65.615
1532.4130, -65.600
1532.4530, -65.438
1532.4930, -65.286
1532.5330, -65.210
1532.5730, -65.263
1532.6130, -65.196
1532.6531, -65.228
1532.6931, -65.247
1532.7331, -65.190
1532.7731, -65.345
1532.8131, -65.392
1532.8531, -65.489
1532.8932, -65.541
1532.9332, -65.730
1532.9732, -65.768
1533.0132, -65.855
1533.0532, -66.019
1533.0932, -66.049
1533.1333, -66.116
1533.1733, -66.179
1533.2133, -66.351
1533.2533, -66.397
1533.2933, -66.452
1533.3333, -66.582
1533.3733, -66.688
1533.4134, -66.876
1533.4534, -66.916
1533.4934, -67.021
1533.5334, -67.099
1533.5734, -67.254
1533.6134, -67.379
1533.6535, -67.374
1533.6935, -67.406
1533.7335, -67.533
1533.7735, -67.486
1533.8135, -67.502
1533.8535, -67.426
1533.8936, -67.430
1533.9336, -67.460
1533.9736, -67.312
1534.0136, -67.232
1534.0536, -67.252
1534.0936, -67.125
1534.1337, -67.184
1534.1737, -67.016
1534.2137, -66.881
1534.2537, -66.902
1534.2937, -66.747
1534.3337, -66.698
1534.3737, -66.619
1534.4138, -66.504
1534.4538, -66.368
1534.4938, -66.395
1534.5338, -66.260
1534.5738, -66.194
1534.6138, -66.179
1534.6539, -66.045
1534.6939, -65.970
1534.7339, -65.993
1534.7739, -65.900
1534.8139, -65.864
1534.8539, -65.835
1534.8940, -65.805
1534.9340, -65.805
1534.9740, -65.865
1535.0140, -65.808
1535.0540, -65.753
1535.0940, -65.770
1535.1341, -65.862
1535.1741, -65.899
1535.2141, -66.040
1535.2541, -65.902
1535.2941, -66.038
1535.3341, -66.109
1535.3741, -66.251
1535.4142, -66.365
1535.4542, -66.365
1535.4942, -66.416
1535.5342, -66.559
1535.5742, -66.628
1535.6142, -66.862
1535.6543, -66.849
1535.6943, -67.004
1535.7343, -67.124
1535.7743, -67.148
1535.8143, -67.317
1535.8543, -67.515
1535.8944, -67.551
1535.9344, -67.585
1535.9744, -67.703
1536.0144, -67.964
1536.0544, -67.956
1536.0944, -68.098
1536.1345, -68.268
1536.1745, -68.255
1536.2145, -68.344
1536.2545, -68.573
1536.2945, -68.498
1536.3345, -68.706
1536.3745, -68.795
1536.4146, -68.854
1536.4546, -69.033
1536.4946, -69.049
1536.5346, -69.149
1536.5746, -69.270
1536.6146, -69.544
1536.6547, -69.471
1536.6947, -69.784
1536.7347, -69.525
1536.7747, -69.818
1536.8147, -69.883
1536.8547, -69.927
1536.8948, -70.167
1536.9348, -70.099
1536.9748, -70.132
1537.0148, -70.258
1537.0548, -70.411
1537.0948, -70.508
1537.1349, -70.486
1537.1749, -70.755
1537.2149, -70.850
1537.2549, -70.939
1537.2949, -71.175
1537.3349, -71.123
1537.3749, -70.964
1537.4150, -71.194
1537.4550, -71.457
1537.4950, -71.411
1537.5350, -71.758
1537.5750, -71.940
1537.6150, -71.773
1537.6551, -72.192
1537.6951, -72.146
1537.7351, -72.156
1537.7751, -72.525
1537.8151, -72.740
1537.8551, -72.507
1537.8952, -72.770
1537.9352, -73.058
1537.9752, -73.435
1538.0152, -73.064
1538.0552, -74.010
1538.0952, -73.974
1538.1353, -74.010
1538.1753, -74.400
1538.2153, -74.722
1538.2553, -74.665
1538.2953, -74.654
1538.3353, -75.571
1538.3754, -75.572
1538.4154, -75.722
1538.4554, -76.208
1538.4954, -76.610
1538.5354, -77.587
1538.5754, -78.625
1538.6154, -77.024
1538.6555, -77.368
1538.6955, -78.378
1538.7355, -77.373
1538.7755, -78.790
1538.8155, -78.941
1538.8555, -78.604
1538.8956, -78.579
1538.9356, -78.038
1538.9756, -79.168
1539.0156, -78.062
1539.0556, -79.714
1539.0956, -76.861
1539.1357, -78.798
1539.1757, -77.700
1539.2157, -76.464
1539.2557, -76.886
1539.2957, -75.911
1539.3357, -75.445
1539.3758, -75.838
1539.4158, -75.075
1539.4558, -74.908
1539.4958, -74.462
1539.5358, -74.365
1539.5758, -73.485
1539.6158, -73.971
1539.6559, -73.752
1539.6959, -73.594
1539.7359, -73.068
1539.7759, -72.657
1539.8159, -72.870
1539.8559, -72.610
1539.8960, -72.934
1539.9360, -72.627
1539.9760, -72.474
1540.0160, -72.694
1540.0560, -72.637
1540.0960, -72.705
1540.1361, -72.516
1540.1761, -72.483
1540.2161, -72.678
1540.2561, -72.649
1540.2961, -73.047
1540.3361, -72.814
1540.3762, -72.507
1540.4162, -72.796
1540.4562, -72.847
1540.4962, -72.975
1540.5362, -72.681
1540.5762, -72.992
1540.6162, -72.530
1540.6563, -73.155
1540.6963, -72.677
1540.7363, -72.886
1540.7763, -72.617
1540.8163, -72.498
1540.8563, -72.385
1540.8964, -72.052
1540.9364, -72.240
1540.9764, -71.904
1541.0164, -72.001
1541.0564, -71.669
1541.0964, -71.553
1541.1365, -71.172
1541.1765, -71.538
1541.2165, -70.925
1541.2565, -70.705
1541.2965, -70.469
1541.3365, -70.401
1541.3766, -70.072
1541.4166, -70.195
1541.4566, -69.983
1541.4966, -69.561
1541.5366, -69.498
1541.5766, -69.240
1541.6166, -69.187
1541.6567, -69.283
1541.6967, -69.065
1541.7367, -68.891
1541.7767, -68.859
1541.8167, -68.798
1541.8567, -68.646
1541.8968, -68.517
1541.9368, -68.639
1541.9768, -68.605
1542.0168, -68.330
1542.0568, -68.489
1542.0968, -68.220
1542.1369, -68.577
1542.1769, -68.459
1542.2169, -68.322
1542.2569, -68.449
1542.2969, -68.504
1542.3369, -68.447
1542.3770, -68.629
1542.4170, -68.643
1542.4570, -68.802
1542.4970, -68.692
1542.5370, -68.970
1542.5770, -69.135
1542.6170, -69.110
1542.6571, -69.517
1542.6971, -69.342
1542.7371, -69.338
1542.7771, -69.536
1542.8171, -69.571
1542.8571, -69.602
1542.8972, -69.884
1542.9372, -69.681
1542.9772, -69.660
1543.0172, -69.993
1543.0572, -69.737
1543.0972, -69.895
1543.1373, -69.913
1543.1773, -69.887
1543.2173, -70.055
1543.2573, -70.017
1543.2973, -70.193
1543.3373, -70.319
1543.3774, -70.169
1543.4174, -70.232
1543.4574, -70.299
1543.4974, -70.639
1543.5374, -70.681
1543.5774, -70.714
1543.6174, -71.187
1543.6575, -70.836
1543.6975, -71.377
1543.7375, -71.262
1543.7775, -71.593
1543.8175, -71.724
1543.8575, -72.157
1543.8976, -71.899
1543.9376, -72.452
1543.9776, -72.294
1544.0176, -72.977
1544.0576, -73.092
1544.0976, -73.366
1544.1377, -73.377
1544.1777, -73.610
1544.2177, -73.763
1544.2577, -74.331
1544.2977, -73.901
1544.3377, -74.158
1544.3778, -74.815
1544.4178, -74.144
1544.4578, -74.982
1544.4978, -75.224
1544.5378, -75.176
1544.5778, -75.288
1544.6178, -75.510
1544.6579, -75.663
1544.6979, -76.177
1544.7379, -75.626
1544.7779, -76.509
1544.8179, -76.326
1544.8579, -76.438
1544.8980, -77.145
1544.9380, -76.337
1544.9780, -76.980
1545.0180, -76.079
1545.0580, -76.481
1545.0980, -76.499
1545.1381, -75.898
1545.1781, -75.997
1545.2181, -75.347
1545.2581, -75.874
1545.2981, -74.976
1545.3381, -74.586
1545.3782, -74.415
1545.4182, -74.056
1545.4582, -73.994
1545.4982, -73.712
1545.5382, -73.157
1545.5782, -72.804
1545.6182, -72.545
1545.6583, -72.347
1545.6983, -72.071
1545.7383, -71.259
1545.7783, -71.215
1545.8183, -70.939
1545.8583, -70.762
1545.8984, -70.329
1545.9384, -70.165
1545.9784, -70.037
1546.0184, -69.649
1546.0584, -69.202
1546.0984, -69.311
1546.1385, -68.975
1546.1785, -68.914
1546.2185, -68.714
1546.2585, -68.508
1546.2985, -68.313
1546.3385, -68.376
1546.3786, -68.095
1546.4186, -68.041
1546.4586, -67.772
1546.4986, -67.734
1546.5386, -67.609
1546.5786, -67.415
1546.6186, -67.303
1546.6587, -67.146
1546.6987, -67.109
1546.7387, -66.947
1546.7787, -66.938
1546.8187, -66.847
1546.8587, -66.748
1546.8988, -66.685
1546.9388, -66.556
1546.9788, -66.592
1547.0188, -66.481
1547.0588, -66.436
1547.0988, -66.392
1547.1389, -66.435
1547.1789, -66.449
1547.2189, -66.335
1547.2589, -66.351
1547.2989, -66.424
1547.3389, -66.416
1547.3790, -66.409
1547.4190, -66.278
1547.4590, -66.298
1547.4990, -66.268
1547.5390, -66.220
1547.5790, -66.199
1547.6190, -66.217
1547.6591, -66.227
1547.6991, -66.081
1547.7391, -66.060
1547.7791, -65.896
1547.8191, -65.926
1547.8591, -65.787
1547.8992, -65.874
1547.9392, -65.849
1547.9792, -65.804
1548.0192, -65.851
1548.0592, -65.785
1548.0992, -65.852
1548.1393, -65.930
1548.1793, -65.982
1548.2193, -65.991
1548.2593, -66.046
1548.2993, -66.244
1548.3393, -66.332
1548.3794, -66.418
1548.4194, -66.581
1548.4594, -66.775
1548.4994, -66.969
1548.5394, -67.064
1548.5794, -67.209
1548.6194, -67.562
1548.6595, -67.743
1548.6995, -67.920
1548.7395, -68.235
1548.7795, -68.446
1548.8195, -68.985
1548.8595, -69.003
1548.8996, -69.371
1548.9396, -69.930
1548.9796, -70.293
1549.0196, -70.614
1549.0596, -71.081
1549.0996, -71.019
1549.1397, -72.221
1549.1797, -72.217
1549.2197, -72.799
1549.2597, -72.899
1549.2997, -73.548
1549.3397, -73.417
1549.3798, -74.513
1549.4198, -74.547
1549.4598, -74.313
1549.4998, -74.820
1549.5398, -75.396
1549.5798, -74.454
1549.6198, -74.300
1549.6599, -75.096
1549.6999, -74.130
1549.7399, -74.703
1549.7799, -74.678
1549.8199, -73.971
1549.8599, -74.002
1549.9000, -73.277
1549.9400, -73.584
1549.9800, -73.238
1550.0200, -73.121
1550.0600, -72.888
1550.1000, -72.792
1550.1401, -72.607
1550.1801, -72.642
1550.2201, -72.297
1550.2601, -72.191
1550.3001, -72.587
1550.3401, -72.171
1550.3802, -72.217
1550.4202, -72.403
1550.4602, -72.379
1550.5002, -72.480
1550.5402, -72.681
1550.5802, -72.797
1550.6202, -72.955
1550.6603, -72.609
1550.7003, -72.985
1550.7403, -73.035
1550.7803, -72.657
1550.8203, -73.078
1550.8603, -72.849
1550.9004, -72.875
1550.9404, -72.797
1550.9804, -72.600
1551.0204, -72.961
1551.0604, -72.430
1551.1004, -72.318
1551.1405, -72.305
1551.1805, -72.072
1551.2205, -72.635
1551.2605, -71.909
1551.3005, -72.130
1551.3405, -71.885
1551.3806, -71.926
1551.4206, -71.948
1551.4606, -71.485
1551.5006, -71.358
1551.5406, -71.721
1551.5806, -71.735
1551.6206, -71.389
1551.6607, -71.511
1551.7007, -71.234
1551.7407, -71.179
1551.7807, -71.190
1551.8207, -70.998
1551.8607, -71.269
1551.9008, -70.641
1551.9408, -71.027
1551.9808, -70.935
1552.0208, -70.710
1552.0608, -70.772
1552.1008, -70.920
1552.1409, -70.794
1552.1809, -70.802
1552.2209, -70.630
1552.2609, -70.625
1552.3009, -70.811
1552.3409, -70.668
1552.3810, -70.645
1552.4210, -70.579
1552.4610, -70.864
1552.5010, -70.848
1552.5410, -70.622
1552.5810, -70.845
1552.6210, -70.633
1552.6611, -70.696
1552.7011, -70.962
1552.7411, -70.768
1552.7811, -70.717
1552.8211, -70.646
1552.8611, -70.810
1552.9012, -70.834
1552.9412, -70.670
1552.9812, -70.582
1553.0212, -70.878
1553.0612, -70.793
1553.1012, -70.613
1553.1413, -70.590
1553.1813, -70.522
1553.2213, -70.308
1553.2613, -70.397
1553.3013, -70.438
1553.3413, -70.390
1553.3814, -70.172
1553.4214, -70.203
1553.4614, -70.213
1553.5014, -70.143
1553.5414, -69.758
1553.5814, -69.855
1553.6214, -69.805
1553.6615, -69.945
1553.7015, -69.713
1553.7415, -69.704
1553.7815, -69.770
1553.8215, -69.842
1553.8615, -69.613
1553.9016, -69.712
1553.9416, -69.701
1553.9816, -69.684
1554.0216, -69.812
1554.0616, -69.782
1554.1016, -69.838
1554.1417, -69.796
1554.1817, -69.804
1554.2217, -69.900
1554.2617, -70.134
1554.3017, -70.197
1554.3417, -69.839
1554.3818, -70.144
1554.4218, -70.226
1554.4618, -70.156
1554.5018, -70.318
1554.5418, -70.382
1554.5818, -70.482
1554.6218, -70.146
1554.6619, -70.590
1554.7019, -70.190
1554.7419, -70.413
1554.7819, -70.186
1554.8219, -70.290
1554.8619, -70.245
1554.9020, -69.997
1554.9420, -69.943
1554.9820, -70.138
1555.0220, -69.872
1555.0620, -69.700
1555.1020, -69.535
1555.1421, -69.657
1555.1821, -69.232
1555.2221, -69.359
1555.2621, -69.155
1555.3021, -68.893
1555.3421, -68.942
1555.3822, -68.605
1555.4222, -68.506
1555.4622, -68.406
1555.5022, -68.367
1555.5422, -68.313
1555.5822, -68.192
1555.6222, -68.148
1555.6623, -68.156
1555.7023, -68.194
1555.7423, -68.199
1555.7823, -68.126
1555.8223, -68.209
1555.8623, -68.336
1555.9024, -68.304
1555.9424, -68.441
1555.9824, -68.525
1556.0224, -68.668
1556.0624, -68.838
1556.1024, -69.011
1556.1425, -69.008
1556.1825, -69.311
1556.2225, -69.564
1556.2625, -69.671
1556.3025, -69.810
1556.3425, -70.077
1556.3826, -70.093
1556.4226, -70.535
1556.4626, -70.630
1556.5026, -70.744
1556.5426, -71.108
1556.5826, -71.557
1556.6226, -71.496
1556.6627, -71.539
1556.7027, -71.945
1556.7427, -72.154
1556.7827, -72.266
1556.8227, -72.284
1556.8627, -72.493
1556.9028, -72.160
1556.9428, -72.462
1556.9828, -72.458
1557.0228, -72.450
1557.0628, -72.106
1557.1028, -72.010
1557.1429, -71.732
1557.1829, -71.244
1557.2229, -71.123
1557.2629, -71.129
1557.3029, -70.436
1557.3429, -70.384
1557.3830, -70.275
1557.4230, -70.063
1557.4630, -70.057
1557.5030, -69.822
1557.5430, -69.405
1557.5830, -69.403
1557.6230, -69.245
1557.6631, -68.923
1557.7031, -69.068
1557.7431, -68.733
1557.7831, -68.838
1557.8231, -68.682
1557.8631, -68.565
1557.9032, -68.676
1557.9432, -68.529
1557.9832, -68.530
1558.0232, -68.550
1558.0632, -68.471
1558.1032, -68.436
1558.1433, -68.508
1558.1833, -68.330
1558.2233, -68.327
1558.2633, -68.311
1558.3033, -68.310
1558.3433, -68.049
1558.3834, -68.183
1558.4234, -68.059
1558.4634, -67.975
1558.5034, -67.825
1558.5434, -67.854
1558.5834, -67.693
1558.6234, -67.565
1558.6635, -67.663
1558.7035, -67.463
1558.7435, -67.468
1558.7835, -67.414
1558.8235, -67.407
1558.8635, -67.318
1558.9036, -67.149
1558.9436, -67.248
1558.9836, -67.185
1559.0236, -67.158
1559.0636, -67.130
1559.1036, -67.073
1559.1437, -67.138
1559.1837, -67.168
1559.2237, -67.089
1559.2637, -67.158
1559.3037, -67.157
1559.3437, -67.203
1559.3838, -67.197
1559.4238, -67.197
1559.4638, -67.302
1559.5038, -67.388
1559.5438, -67.419
1559.5838, -67.512
1559.6238, -67.608
1559.6639, -67.633
1559.7039, -67.790
1559.7439, -67.803
1559.7839, -67.955
1559.8239, -67.966
1559.8639, -68.188
1559.9040, -68.216
1559.9440, -68.280
1559.9840, -68.563
1560.0240, -68.400
1560.0640, -68.636
1560.1040, -68.825
1560.1441, -68.952
1560.1841, -68.804
1560.2241, -69.056
1560.2641, -69.041
1560.3041, -69.209
1560.3441, -69.505
1560.3842, -69.567
1560.4242, -69.767
1560.4642, -69.831
1560.5042, -69.997
1560.5442, -69.955
1560.5842, -70.187
1560.6242, -70.390
1560.6643, -70.514
1560.7043, -70.530
1560.7443, -70.815
1560.7843, -70.631
1560.8243, -70.825
1560.8643, -70.974
1560.9044, -71.130
1560.9444, -71.316
1560.9844, -71.334
1561.0244, -71.431
1561.0644, -71.529
1561.1044, -71.484
1561.1445, -71.957
1561.1845, -71.933
1561.2245, -71.778
1561.2645, -71.812
1561.3045, -72.000
1561.3445, -72.098
1561.3846, -72.230
1561.4246, -72.095
1561.4646, -72.333
1561.5046, -72.115
1561.5446, -72.210
1561.5846, -72.078
1561.6246, -72.379
1561.6647, -72.465
1561.7047, -72.418
1561.7447, -72.817
1561.7847, -72.469
1561.8247, -72.662
1561.8647, -73.088
1561.9048, -72.614
1561.9448, -72.709
1561.9848, -73.146
1562.0248, -73.017
1562.0648, -73.444
1562.1048, -73.012
1562.1449, -72.640
1562.1849, -73.489
1562.2249, -72.989
1562.2649, -73.158
1562.3049, -73.449
1562.3449, -73.833
1562.3850, -73.372
1562.4250, -73.456
1562.4650, -73.329
1562.5050, -73.186
1562.5450, -73.036
1562.5850, -73.388
1562.6251, -73.470
1562.6651, -73.659
1562.7051, -73.642
1562.7451, -74.036
1562.7851, -73.838
1562.8251, -74.235
1562.8651, -74.080
1562.9052, -73.827
1562.9452, -75.013
1562.9852, -74.970
1563.0252, -74.836
1563.0652, -75.257
1563.1052, -75.071
1563.1453, -75.242
1563.1853, -75.408
1563.2253, -75.567
1563.2653, -76.397
1563.3053, -76.735
1563.3453, -76.584
1563.3854, -76.240
1563.4254, -77.617
1563.4654, -77.002
1563.5054, -77.894
1563.5454, -77.382
1563.5854, -77.681
1563.6255, -78.880
1563.6655, -78.201
1563.7055, -78.561
1563.7455, -78.220
1563.7855, -77.432
1563.8255, -78.649
1563.8655, -78.624
1563.9056, -78.240
1563.9456, -78.654
1563.9856, -78.228
1564.0256, -78.427
1564.0656, -79.179
1564.1056, -77.309
1564.1457, -79.208
1564.1857, -79.196
1564.2257, -79.270
1564.2657, -78.744
1564.3057, -80.690
1564.3457, -78.959
1564.3858, -78.363
1564.4258, -78.933
1564.4658, -82.358
1564.5058, -79.171
1564.5458, -83.030
1564.5858, -79.758
1564.6259, -79.181
1564.6659, -81.012
1564.7059, -79.582
1564.7459, -80.559
1564.7859, -81.501
1564.8259, -81.151
1564.8659, -79.323
1564.9060, -83.036
1564.9460, -80.181
1564.9860, -80.580
1565.0260, -80.464
1565.0660, -81.492
1565.1060, -81.169
1565.1461, -83.460
1565.1861, -80.581
1565.2261, -81.431
1565.2661, -82.989
1565.3061, -80.004
1565.3461, -79.684
1565.3862, -81.100
1565.4262, -80.999
1565.4662, -83.010
1565.5062, -80.830
1565.5462, -80.514
1565.5862, -79.867
1565.6263, -84.002
1565.6663, -80.763
1565.7063, -81.350
1565.7463, -78.496
1565.7863, -81.305
1565.8263, -82.792
1565.8663, -82.053
1565.9064, -80.629
1565.9464, -79.887
1565.9864, -78.944
1566.0264, -79.571
1566.0664, -81.812
1566.1064, -81.647
1566.1465, -80.724
1566.1865, -79.776
1566.2265, -81.905
1566.2665, -80.357
1566.3065, -80.348
1566.3465, -80.832
1566.3866, -80.112
1566.4266, -79.761
1566.4666, -79.748
1566.5066, -80.428
1566.5466, -78.558
1566.5866, -80.519
1566.6267, -81.441
1566.6667, -79.992
1566.7067, -79.886
1566.7467, -80.840
1566.7867, -81.531
1566.8267, -79.435
1566.8667, -80.908
1566.9068, -79.470
1566.9468, -79.641
1566.9868, -79.987
1567.0268, -79.533
1567.0668, -80.806
1567.1068, -79.553
1567.1469, -80.804
1567.1869, -79.350
1567.2269, -83.638
1567.2669, -80.364
1567.3069, -82.197
1567.3469, -80.074
1567.3870, -81.080
1567.4270, -81.768
1567.4670, -83.694
1567.5070, -82.245
1567.5470, -80.889
1567.5870, -81.351
1567.6271, -81.593
1567.6671, -82.086
1567.7071, -80.136
1567.7471, -83.422
1567.7871, -81.763
1567.8271, -80.237
1567.8671, -81.566
1567.9072, -81.236
1567.9472, -85.632
1567.9872, -81.111
1568.0272, -81.647
1568.0672, -81.607
1568.1072, -81.404
1568.1473, -81.045
1568.1873, -80.193
1568.2273, -79.745
1568.2673, -80.392
1568.3073, -80.982
1568.3473, -80.006
1568.3874, -81.012
1568.4274, -80.513
1568.4674, -80.852
1568.5074, -80.277
1568.5474, -79.346
1568.5874, -81.422
1568.6275, -79.198
1568.6675, -80.165
1568.7075, -80.099
1568.7475, -80.522
1568.7875, -81.715
1568.8275, -79.323
1568.8675, -80.279
1568.9076, -81.875
1568.9476, -80.180
1568.9876, -78.689
1569.0276, -82.200
1569.0676, -80.389
1569.1076, -79.799
1569.1477, -81.969
1569.1877, -82.163
1569.2277, -80.589
1569.2677, -86.366
1569.3077, -81.825
1569.3477, -78.614
1569.3878, -82.194
1569.4278, -80.299
1569.4678, -81.455
1569.5078, -80.914
1569.5478, -82.105
1569.5878, -80.786
1569.6279, -80.157
1569.6679, -92.735
1569.7079, -82.136
1569.7479, -80.503
1569.7879, -82.312
1569.8279, -80.750
1569.8679, -82.310
1569.9080, -85.819
1569.9480, -82.758
1569.9880, -82.301
1570.0280, -81.252
1570.0680, -81.665
1570.1080, -89.296
1570.1481, -81.843
1570.1881, -83.443
1570.2281, -84.310
1570.2681, -80.392
1570.3081, -81.413
1570.3481, -84.371
1570.3882, -84.555
1570.4282, -84.259
1570.4682, -85.299
1570.5082, -80.883
1570.5482, -83.480
1570.5882, -83.377
1570.6283, -85.541
1570.6683, -85.245
1570.7083, -81.912
1570.7483, -86.407
1570.7883, -83.933
1570.8283, -87.233
1570.8683, -82.258
1570.9084, -88.397
1570.9484, -82.728
1570.9884, -83.996
1571.0284, -86.553
1571.0684, -86.980
1571.1084, -83.865
1571.1485,-210.000
1571.1885, -82.857
1571.2285, -82.933
1571.2685, -85.278
1571.3085, -87.054
1571.3485, -84.960
1571.3886, -84.183
1571.4286, -84.709
1571.4686, -92.079
1571.5086, -84.510
1571.5486, -82.561
1571.5886, -84.834
1571.6287, -82.198
1571.6687, -88.926
1571.7087, -83.531
1571.7487, -83.018
1571.7887, -82.390
1571.8287,-210.000
1571.8687, -83.178
1571.9088, -86.902
1571.9488, -82.420
1571.9888,-103.204
1572.0288, -84.370
1572.0688, -82.060
1572.1088, -84.416
1572.1489, -84.803
1572.1889, -85.605
1572.2289, -84.287
1572.2689, -84.134
1572.3089, -83.815
1572.3489, -82.713
1572.3890, -87.622
1572.4290, -83.110
1572.4690, -82.487
1572.5090, -86.026
1572.5490, -81.292
1572.5890, -79.832
1572.6291, -84.622
1572.6691, -83.184
1572.7091, -85.717
1572.7491, -82.087
1572.7891, -81.255
1572.8291, -82.336
1572.8691, -82.851
1572.9092,-210.000
1572.9492, -83.437
1572.9892, -84.137
1573.0292, -83.100
1573.0692,-210.000
1573.1092, -83.383
1573.1493, -83.298
1573.1893, -92.512
1573.2293, -80.952
1573.2693, -86.595
1573.3093, -89.669
1573.3493, -80.469
1573.3894,-210.000
1573.4294, -83.473
1573.4694, -86.088
1573.5094, -81.459
1573.5494, -85.861
1573.5894, -88.697
1573.6295, -83.320
1573.6695, -84.664
1573.7095, -84.763
1573.7495, -83.605
1573.7895, -84.730
1573.8295, -83.758
1573.8695, -85.780
1573.9096,-210.000
1573.9496, -87.228
1573.9896, -85.369
1574.0296, -81.989
1574.0696, -85.359
1574.1096, -81.774
1574.1497, -88.760
1574.1897, -84.619
1574.2297, -82.189
1574.2697, -82.060
1574.3097, -83.121
1574.3497, -82.065
1574.3898,-210.000
1574.4298, -81.053
1574.4698, -86.546
1574.5098, -85.239
1574.5498, -81.959
1574.5898,-210.000
1574.6299, -85.543
1574.6699,-210.000
1574.7099, -80.787
1574.7499, -83.095
1574.7899, -91.004
1574.8299, -84.768
1574.8699, -83.640
1574.9100, -83.457
1574.9500, -84.293
1574.9900,-210.000
1575.0300, -80.992
1575.0700, -84.924
1575.1100, -89.541
1575.1501, -84.989
1575.1901, -83.724
1575.2301, -82.232
1575.2701,-210.000
1575.3101, -84.431
1575.3501, -82.014
1575.3902, -87.808
1575.4302, -82.635
1575.4702, -83.584
1575.5102, -84.759
1575.5502, -84.883
1575.5902, -84.529
1575.6303, -83.597
1575.6703, -85.055
1575.7103, -81.370
1575.7503, -83.652
1575.7903, -86.665
1575.8303, -81.659
1575.8703, -91.565
1575.9104, -81.641
1575.9504, -83.349
1575.9904, -82.416
1576.0304, -85.585
1576.0704, -86.796
1576.1104, -82.361
1576.1505, -83.662
1576.1905, -82.396
1576.2305, -86.214
1576.2705, -89.136
1576.3105, -81.541
1576.3505, -83.152
1576.3906, -81.712
1576.4306, -87.620
1576.4706, -89.701
1576.5106, -85.934
1576.5506, -83.133
1576.5906, -81.343
1576.6307, -86.038
1576.6707, -82.944
1576.7107, -83.175
1576.7507, -82.360
1576.7907, -92.714
1576.8307, -82.395
1576.8707, -83.445
1576.9108, -82.261
1576.9508, -82.176
1576.9908,-102.825
1577.0308, -82.912
1577.0708, -82.027
1577.1108, -81.645
1577.1509, -84.681
1577.1909, -80.863
1577.2309, -84.897
1577.2709, -88.961
1577.3109, -85.108
1577.3509, -81.548
1577.3910, -84.953
1577.4310, -81.255
1577.4710, -84.766
1577.5110, -87.991
1577.5510, -82.916
1577.5910, -87.234
1577.6311, -84.796
1577.6711, -80.955
1577.7111, -80.898
1577.7511, -85.426
1577.7911, -82.472
1577.8311,-210.000
1577.8711, -83.268
1577.9112, -81.416
1577.9512, -83.938
1577.9912, -83.185
1578.0312, -83.357
1578.0712, -82.338
1578.1112, -81.193
1578.1513, -85.938
1578.1913, -83.904
1578.2313, -87.414
1578.2713, -83.164
1578.3113, -84.252
1578.3513, -87.973
1578.3914, -82.511
1578.4314, -84.581
1578.4714, -82.855
1578.5114, -82.401
1578.5514, -81.440
1578.5914, -85.983
1578.6315, -81.891
1578.6715, -86.836
1578.7115, -83.522
1578.7515, -82.182
1578.7915, -85.504
1578.8315, -85.434
1578.8715, -85.069
1578.9116, -83.461
1578.9516, -84.426
1578.9916, -84.525
1579.0316, -83.148
1579.0716,-210.000
1579.1116, -85.453
1579.1517, -95.953
1579.1917, -85.565
1579.2317, -83.472
1579.2717, -85.370
1579.3117, -84.046
1579.3517, -84.577
1579.3918, -85.784
1579.4318, -82.483
1579.4718, -82.013
1579.5118, -84.364
1579.5518, -82.180
1579.5918, -87.399
1579.6319, -84.034
1579.6719, -84.898
1579.7119, -89.001
1579.7519, -84.866
1579.7919, -83.033
1579.8319, -89.365
1579.8719, -84.109
1579.9120, -83.547
1579.9520, -83.818
1579.9920, -84.025
1580.0320, -82.663
1580.0720, -86.059
1580.1120, -82.558
1580.1521, -84.770
1580.1921, -89.542
1580.2321, -85.885
1580.2721, -83.083
1580.3121, -92.532
1580.3521, -81.386
1580.3922, -89.086
1580.4322, -79.423
1580.4722, -83.728
1580.5122, -82.305
1580.5522, -83.424
1580.5922, -84.108
1580.6323,-210.000
1580.6723, -81.948
1580.7123, -83.307
1580.7523, -87.222
1580.7923, -81.580
1580.8323, -84.702
1580.8723, -82.811
1580.9124, -89.876
1580.9524, -84.770
1580.9924, -83.089
1581.0324, -85.408
1581.0724, -84.424
1581.1124, -85.701
1581.1525, -85.180
1581.1925, -82.473
1581.2325, -87.408
1581.2725, -81.538
1581.3125, -90.389
1581.3525, -83.714
1581.3926, -85.115
1581.4326, -83.925
1581.4726, -83.935
1581.5126,-210.000
1581.5526, -86.867
1581.5926, -81.151
1581.6327, -85.951
1581.6727, -82.347
1581.7127, -85.218
1581.7527, -84.491
1581.7927, -84.210
1581.8327, -83.077
1581.8727, -83.880
1581.9128, -81.481
1581.9528, -83.268
1581.9928, -80.663
1582.0328, -84.739
1582.0728, -81.916
1582.1128,-210.000
1582.1529, -82.826
1582.1929, -92.064
1582.2329, -83.701
1582.2729, -85.709
1582.3129, -84.495
1582.3529, -81.974
1582.3930, -85.166
1582.4330, -88.536
1582.4730, -83.890
1582.5130, -82.710
1582.5530, -84.014
1582.5930, -84.098
1582.6331, -83.787
1582.6731, -82.199
1582.7131, -87.706
1582.7531, -81.875
1582.7931, -83.498
1582.8331, -81.995
1582.8731, -87.179
1582.9132, -85.085
1582.9532, -90.085
1582.9932, -85.428
1583.0332, -88.286
1583.0732, -81.451
1583.1132, -89.256
1583.1533, -81.273
1583.1933, -82.054
1583.2333, -90.384
1583.2733, -88.429
1583.3133, -82.983
1583.3533, -81.446
1583.3934, -84.378
1583.4334, -82.258
1583.4734, -87.129
1583.5134, -89.837
1583.5534, -81.358
1583.5934, -85.569
1583.6335, -88.845
1583.6735, -82.477
1583.7135, -82.718
1583.7535, -83.936
1583.7935, -81.900
1583.8335, -81.899
1583.8735, -86.738
1583.9136, -82.477
1583.9536, -82.285
1583.9936, -83.946
1584.0336, -84.066
1584.0736, -91.779
1584.1136, -81.913
1584.1537, -84.576
1584.1937, -83.133
1584.2337, -85.613
1584.2737, -86.575
1584.3137, -82.316
1584.3537, -83.889
1584.3938, -82.271
1584.4338, -87.151
1584.4738, -85.341
1584.5138, -82.798
1584.5538, -80.723
1584.5938,-210.000
1584.6339, -83.213
1584.6739, -87.778
1584.7139, -82.595
1584.7539, -84.648
1584.7939, -80.285
1584.8339, -87.191
1584.8739, -82.493
1584.9140, -82.570
1584.9540, -81.979
1584.9940, -87.048
1585.0340, -82.632
1585.0740, -83.683
1585.1140, -82.723
1585.1541,-210.000
1585.1941, -82.151
1585.2341, -85.481
1585.2741, -81.140
1585.3141, -87.259
1585.3541, -91.687
1585.3942,-100.433
1585.4342, -85.036
1585.4742, -80.073
1585.5142, -81.191
1585.5542, -89.358
1585.5942, -85.748
1585.6343, -84.133
1585.6743, -83.769
1585.7143, -86.044
1585.7543, -82.050
1585.7943, -81.558
1585.8343, -84.662
1585.8743, -83.403
1585.9144, -83.091
1585.9544, -80.952
1585.9944, -82.748
1586.0344, -83.583
1586.0744, -84.159
1586.1144, -82.217
1586.1545, -81.211
1586.1945, -90.928
1586.2345, -91.614
1586.2745, -80.130
1586.3145, -81.687
1586.3545,-210.000
1586.3946, -80.785
1586.4346, -86.012
1586.4746, -86.625
1586.5146, -80.953
1586.5546, -82.621
1586.5946, -87.851
1586.6347, -84.799
1586.6747, -81.039
1586.7147, -85.706
1586.7547, -83.282
1586.7947, -83.585
1586.8347, -83.785
1586.8747, -85.702
1586.9148, -82.882
1586.9548, -91.302
1586.9948, -83.665
1587.0348, -86.353
1587.0748, -82.484
1587.1148,-210.000
1587.1549, -81.300
1587.1949, -87.076
1587.2349, -84.176
1587.2749, -83.637
1587.3149, -82.714
1587.3549, -83.038
1587.3950, -85.849
1587.4350, -84.215
1587.4750, -83.414
1587.5150, -89.042
1587.5550, -80.683
1587.5950, -85.471
1587.6351, -81.749
1587.6751, -86.009
1587.7151, -85.155
1587.7551, -86.973
1587.7951, -82.776
1587.8351, -80.509
1587.8752, -81.106
1587.9152, -82.297
1587.9552, -83.288
1587.9952, -82.206
1588.0352, -84.707
1588.0752, -80.990
1588.1152, -84.349
1588.1553, -84.635
1588.1953, -83.782
1588.2353, -83.820
1588.2753, -82.646
1588.3153, -84.825
1588.3553, -84.983
1588.3954, -84.893
1588.4354, -81.946
1588.4754, -85.568
1588.5154, -81.979
1588.5554,-210.000
1588.5954, -80.770
1588.6355, -87.287
1588.6755,-210.000
1588.7155, -80.664
1588.7555, -84.543
1588.7955,-210.000
1588.8355, -81.227
1588.8756, -84.745
1588.9156, -86.998
1588.9556, -83.134
1588.9956, -82.993
1589.0356, -85.696
1589.0756, -86.095
1589.1156,-210.000
1589.1557, -81.507
1589.1957, -88.121
1589.2357, -87.128
1589.2757, -79.943
1589.3157, -85.471
1589.3557, -85.820
1589.3958,-210.000
1589.4358, -81.598
1589.4758, -81.745
1589.5158, -82.605
1589.5558, -82.322
1589.5958, -81.219
1589.6359, -84.054
1589.6759, -84.586
1589.7159,-210.000
1589.7559, -78.838
1589.7959, -83.947
1589.8359, -83.283
1589.8760, -86.360
1589.9160, -83.762
1589.9560, -86.444
1589.9960, -82.469
1590.0360, -87.837
1590.0760, -81.988
1590.1160, -82.784
1590.1561, -82.064
1590.1961, -86.257
1590.2361, -84.084
1590.2761, -81.608
1590.3161, -82.627
1590.3561, -86.111
1590.3962, -83.276
1590.4362, -83.898
1590.4762, -84.999
1590.5162, -83.413
1590.5562, -83.141
1590.5962, -85.277
1590.6363, -85.876
1590.6763, -98.237
1590.7163, -80.881
1590.7563, -80.134
1590.7963,-100.859
1590.8363, -80.820
1590.8764, -83.541
1590.9164, -95.970
1590.9564, -82.600
1590.9964, -81.510
1591.0364,-210.000
1591.0764, -83.441
1591.1164, -83.075
1591.1565, -80.035
1591.1965, -84.599
1591.2365, -83.763
1591.2765, -83.479
1591.3165, -84.042
1591.3565, -84.395
1591.3966, -84.624
1591.4366, -81.774
1591.4766, -87.834
1591.5166, -86.513
1591.5566, -84.395
1591.5966, -84.375
1591.6367, -89.821
1591.6767, -81.920
1591.7167, -83.360
1591.7567, -88.789
1591.7967, -84.645
1591.8367, -82.281
1591.8768, -84.802
1591.9168, -85.700
1591.9568, -81.922
1591.9968, -85.840
1592.0368, -85.856
1592.0768, -95.424
1592.1168, -80.383
1592.1569, -81.069
1592.1969, -80.821
1592.2369, -92.339
1592.2769, -82.426
1592.3169, -84.008
1592.3569, -85.248
1592.3970, -84.664
1592.4370, -84.615
1592.4770, -83.579
1592.5170, -82.581
1592.5570, -86.915
1592.5970, -82.114
1592.6371, -88.349
1592.6771, -87.257
1592.7171,-210.000
1592.7571, -80.024
1592.7971, -88.995
1592.8371, -84.370
1592.8772, -85.554
1592.9172, -86.734
1592.9572, -84.401
1592.9972, -82.154
1593.0372, -88.588
1593.0772, -81.609
1593.1172, -84.135
1593.1573, -83.472
1593.1973, -90.534
1593.2373, -81.858
1593.2773, -89.869
1593.3173, -85.523
1593.3573, -88.927
1593.3974, -92.162
1593.4374, -83.381
1593.4774, -90.666
1593.5174, -82.730
1593.5574, -83.775
1593.5974, -82.709
1593.6375, -83.531
1593.6775, -84.458
1593.7175, -81.568
1593.7575, -83.611
1593.7975, -85.172
1593.8375, -83.720
1593.8776, -79.741
1593.9176, -86.878
1593.9576, -85.247
1593.9976, -82.324
1594.0376, -82.168
1594.0776,-210.000
1594.1176, -82.228
1594.1577, -81.987
1594.1977, -86.268
1594.2377, -84.139
1594.2777, -84.451
1594.3177, -87.045
1594.3577, -83.201
1594.3978, -82.008
1594.4378, -85.986
1594.4778, -87.481
1594.5178, -81.607
1594.5578, -85.511
1594.5978, -88.777
1594.6379, -83.538
1594.6779, -83.218
1594.7179, -85.245
1594.7579, -88.322
1594.7979, -81.665
1594.8379, -83.399
1594.8780, -84.983
1594.9180, -83.709
1594.9580, -92.171
1594.9980, -80.191
1595.0380, -90.704
1595.0780, -82.471
1595.1180,-210.000
1595.1581,-210.000
1595.1981, -84.846
1595.2381, -83.014
1595.2781, -83.414
1595.3181, -83.679
1595.3581, -84.270
1595.3982, -83.564
1595.4382, -82.404
1595.4782, -88.230
1595.5182, -83.014
1595.5582, -82.348
1595.5982, -82.358
1595.6383, -87.331
1595.6783, -84.697
1595.7183, -84.307
1595.7583, -84.627
1595.7983, -86.549
1595.8383, -83.265
1595.8784, -83.492
1595.9184, -84.471
1595.9584, -82.770
1595.9984, -88.720
1596.0384, -82.887
1596.0784, -81.838
1596.1184, -87.768
1596.1585, -81.784
1596.1985, -83.956
1596.2385, -85.468
1596.2785, -84.151
1596.3185, -79.382
1596.3585, -88.980
1596.3986, -96.664
1596.4386, -94.888
1596.4786, -83.906
1596.5186, -80.880
1596.5586, -86.300
1596.5986, -80.475
1596.6387, -83.095
1596.6787, -81.956
1596.7187, -83.362
1596.7587, -83.809
1596.7987, -81.654
1596.8387, -84.326
1596.8788, -82.940
1596.9188, -88.624
1596.9588, -86.175
1596.9988,-210.000
1597.0388, -86.350
1597.0788, -81.889
1597.1188, -78.572
1597.1589,-210.000
1597.1989, -81.379
1597.2389,-210.000
1597.2789, -82.365
1597.3189, -81.588
1597.3589, -94.051
1597.3990, -86.836
1597.4390, -87.150
1597.4790, -82.627
1597.5190, -85.077
1597.5590, -82.176
1597.5990, -84.125
1597.6391, -80.031
1597.6791, -84.043
1597.7191, -85.237
1597.7591, -89.752
1597.7991,-210.000
1597.8391, -79.808
1597.8792, -82.518
1597.9192, -83.173
1597.9592,-100.056
1597.9992, -82.933
1598.0392, -84.031
1598.0792, -82.285
1598.1192, -82.604
1598.1593, -87.285
1598.1993, -86.803
1598.2393,-210.000
1598.2793, -83.304
1598.3193, -85.477
1598.3593, -82.864
1598.3994, -83.800
1598.4394, -82.875
1598.4794, -83.032
1598.5194, -84.723
1598.5594, -83.845
1598.5994, -82.080
1598.6395,-103.453
1598.6795, -84.155
1598.7195, -82.031
1598.7595,-210.000
1598.7995, -86.158
1598.8395, -84.175
1598.8796, -92.986
1598.9196, -84.734
1598.9596, -82.093
1598.9996, -79.740
1599.0396, -84.892
1599.0796, -82.988
1599.1196, -88.576
1599.1597, -81.670
1599.1997, -87.775
1599.2397, -85.118
1599.2797, -88.156
1599.3197, -81.222
1599.3597, -81.449
1599.3998, -83.665
1599.4398, -83.667
1599.4798, -84.932
1599.5198, -83.266
1599.5598, -83.993
1599.5998, -81.096
1599.6399, -83.190
1599.6799,-210.000
1599.7199, -81.749
1599.7599, -83.549
1599.7999, -85.136
1599.8399, -84.743
1599.8800, -81.794
1599.9200, -87.616
1599.9600, -83.716
1600.0000, -84.264
