70BCSV 	
// AQ6370B OPTICAL SPECTRUM ANALYZER //                 
25
"CTRWL",1350.000000
"SPAN", 100.000000
"START WL",1300.000000
"STOP WL",1400.000000
"WLFREQ", 0
"REFL",-47.3
"LSCL", 5.0
"RESLN",0.100
"AVG",   1
"SMPLAUTO",      0
"SMPL",       5001
"SMPLINTVL",0.0200
"HIGH2"
"MEAS"
"LSUNT",0
"NMSKH","OFF"
"RESCOR",0
"RESPARM", 9050
"FREQPARM", 9050






"[TRACE DATA]"
1300.0000, -65.977
1300.0200, -66.020
1300.0400, -65.986
1300.0600, -65.795
1300.0800, -65.783
1300.1000, -65.917
1300.1200, -65.905
1300.1400, -65.871
1300.1600, -65.900
1300.1800, -65.859
1300.2000, -65.854
1300.2200, -65.935
1300.2400, -65.912
1300.2600, -65.912
1300.2800, -65.906
1300.3000, -65.977
1300.3200, -66.026
1300.3400, -66.013
1300.3600, -66.142
1300.3800, -66.139
1300.4000, -66.238
1300.4200, -66.232
1300.4400, -66.307
1300.4600, -66.291
1300.4800, -66.317
1300.5000, -66.394
1300.5200, -66.425
1300.5400, -66.473
1300.5600, -66.450
1300.5800, -66.532
1300.6000, -66.516
1300.6200, -66.482
1300.6400, -66.423
1300.6600, -66.359
1300.6800, -66.423
1300.7000, -66.393
1300.7200, -66.314
1300.7400, -66.305
1300.7600, -66.297
1300.7800, -66.165
1300.8000, -66.100
1300.8200, -66.056
1300.8400, -66.088
1300.8600, -66.180
1300.8800, -66.019
1300.9000, -65.900
1300.9200, -66.013
1300.9400, -65.863
1300.9600, -65.872
1300.9800, -65.817
1301.0000, -65.868
1301.0200, -65.781
1301.0400, -65.898
1301.0600, -65.930
1301.0800, -65.862
1301.1000, -65.964
1301.1200, -65.879
1301.1400, -65.925
1301.1600, -65.919
1301.1800, -66.073
1301.2000, -66.127
1301.2200, -66.110
1301.2400, -66.249
1301.2600, -66.282
1301.2800, -66.423
1301.3000, -66.437
1301.3200, -66.467
1301.3400, -66.539
1301.3600, -66.719
1301.3800, -66.728
1301.4000, -66.855
1301.4200, -66.878
1301.4400, -67.006
1301.4600, -67.014
1301.4800, -67.161
1301.5000, -67.013
1301.5200, -66.983
1301.5400, -67.019
1301.5600, -67.116
1301.5800, -67.093
1301.6000, -67.149
1301.6200, -67.098
1301.6400, -67.068
1301.6600, -66.929
1301.6800, -66.901
1301.7000, -66.865
1301.7200, -66.920
1301.7400, -66.857
1301.7600, -66.810
1301.7800, -66.801
1301.8000, -66.767
1301.8200, -66.777
1301.8400, -66.735
1301.8600, -66.717
1301.8800, -66.797
1301.9000, -66.688
1301.9200, -66.685
1301.9400, -66.596
1301.9600, -66.647
1301.9800, -66.677
1302.0000, -66.677
1302.0200, -66.794
1302.0400, -66.748
1302.0600, -66.723
1302.0800, -66.934
1302.1000, -66.999
1302.1200, -67.040
1302.1400, -67.109
1302.1600, -67.114
1302.1800, -67.239
1302.2000, -67.315
1302.2200, -67.288
1302.2400, -67.411
1302.2600, -67.422
1302.2800, -67.451
1302.3000, -67.795
1302.3200, -67.790
1302.3400, -67.776
1302.3600, -67.817
1302.3800, -67.866
1302.4000, -67.945
1302.4200, -68.092
1302.4400, -67.970
1302.4600, -68.047
1302.4800, -68.027
1302.5000, -68.000
1302.5200, -68.139
1302.5400, -68.018
1302.5600, -67.922
1302.5800, -67.988
1302.6000, -67.867
1302.6200, -67.783
1302.6400, -67.733
1302.6600, -67.870
1302.6800, -67.737
1302.7000, -67.643
1302.7200, -67.696
1302.7400, -67.713
1302.7600, -67.547
1302.7800, -67.596
1302.8000, -67.630
1302.8200, -67.510
1302.8400, -67.407
1302.8600, -67.476
1302.8800, -67.475
1302.9000, -67.598
1302.9200, -67.512
1302.9400, -67.495
1302.9600, -67.366
1302.9800, -67.561
1303.0000, -67.511
1303.0200, -67.614
1303.0400, -67.667
1303.0600, -67.645
1303.0800, -67.779
1303.1000, -67.893
1303.1200, -67.951
1303.1400, -67.988
1303.1600, -67.895
1303.1800, -68.140
1303.2000, -68.179
1303.2200, -68.228
1303.2400, -68.350
1303.2600, -68.470
1303.2800, -68.492
1303.3000, -68.365
1303.3200, -68.565
1303.3400, -68.593
1303.3600, -68.614
1303.3800, -68.644
1303.4000, -68.734
1303.4200, -68.858
1303.4400, -68.767
1303.4600, -68.768
1303.4800, -68.728
1303.5000, -68.723
1303.5200, -68.756
1303.5400, -68.670
1303.5600, -68.580
1303.5800, -68.720
1303.6000, -68.663
1303.6200, -68.482
1303.6400, -68.515
1303.6600, -68.467
1303.6800, -68.350
1303.7000, -68.474
1303.7200, -68.388
1303.7400, -68.218
1303.7600, -68.224
1303.7800, -68.218
1303.8000, -68.266
1303.8200, -68.279
1303.8400, -68.224
1303.8600, -68.348
1303.8800, -68.312
1303.9000, -68.324
1303.9200, -68.280
1303.9400, -68.343
1303.9600, -68.405
1303.9800, -68.517
1304.0000, -68.453
1304.0200, -68.551
1304.0400, -68.702
1304.0600, -68.726
1304.0800, -68.836
1304.1000, -68.804
1304.1200, -68.908
1304.1400, -69.020
1304.1600, -68.946
1304.1800, -69.034
1304.2000, -69.168
1304.2200, -69.189
1304.2400, -69.193
1304.2600, -69.213
1304.2800, -69.358
1304.3000, -69.353
1304.3200, -69.274
1304.3400, -69.220
1304.3600, -69.323
1304.3800, -69.278
1304.4000, -69.429
1304.4200, -69.254
1304.4400, -69.141
1304.4600, -69.140
1304.4800, -69.084
1304.5000, -69.166
1304.5200, -69.104
1304.5400, -69.037
1304.5600, -68.942
1304.5800, -68.939
1304.6000, -68.915
1304.6200, -68.870
1304.6400, -68.850
1304.6600, -68.812
1304.6800, -68.944
1304.7000, -68.858
1304.7200, -68.633
1304.7400, -68.791
1304.7600, -68.811
1304.7800, -68.677
1304.8000, -68.697
1304.8200, -68.594
1304.8400, -68.693
1304.8600, -68.732
1304.8800, -68.833
1304.9000, -68.822
1304.9200, -68.744
1304.9400, -68.701
1304.9600, -68.934
1304.9800, -68.918
1305.0000, -68.957
1305.0200, -68.825
1305.0400, -68.912
1305.0600, -68.996
1305.0800, -68.953
1305.1000, -69.084
1305.1200, -69.075
1305.1400, -69.030
1305.1600, -69.109
1305.1800, -69.175
1305.2000, -69.059
1305.2200, -69.084
1305.2400, -69.244
1305.2600, -69.064
1305.2800, -69.030
1305.3000, -68.965
1305.3200, -69.068
1305.3400, -68.838
1305.3600, -68.916
1305.3800, -68.881
1305.4000, -68.890
1305.4200, -68.791
1305.4400, -68.832
1305.4600, -68.736
1305.4800, -68.560
1305.5000, -68.638
1305.5200, -68.482
1305.5400, -68.587
1305.5600, -68.446
1305.5800, -68.246
1305.6000, -68.342
1305.6200, -68.183
1305.6400, -68.255
1305.6600, -68.283
1305.6800, -68.251
1305.7000, -68.048
1305.7200, -68.138
1305.7400, -68.002
1305.7600, -68.139
1305.7800, -68.017
1305.8000, -68.047
1305.8200, -68.063
1305.8400, -68.121
1305.8600, -68.209
1305.8800, -68.151
1305.9000, -68.156
1305.9200, -68.151
1305.9400, -68.181
1305.9600, -68.277
1305.9800, -68.185
1306.0000, -68.235
1306.0200, -68.340
1306.0400, -68.415
1306.0600, -68.432
1306.0800, -68.283
1306.1000, -68.216
1306.1200, -68.227
1306.1400, -68.307
1306.1600, -68.390
1306.1800, -68.333
1306.2000, -68.273
1306.2200, -68.125
1306.2400, -68.163
1306.2600, -68.263
1306.2800, -68.080
1306.3000, -68.041
1306.3200, -68.015
1306.3400, -67.965
1306.3600, -67.845
1306.3800, -67.782
1306.4000, -67.613
1306.4200, -67.578
1306.4400, -67.699
1306.4600, -67.509
1306.4800, -67.371
1306.5000, -67.221
1306.5200, -67.294
1306.5400, -67.130
1306.5600, -67.199
1306.5800, -67.097
1306.6000, -67.057
1306.6200, -67.025
1306.6400, -67.009
1306.6600, -66.999
1306.6800, -66.840
1306.7000, -66.871
1306.7200, -66.812
1306.7400, -66.815
1306.7600, -66.865
1306.7800, -66.776
1306.8000, -66.850
1306.8200, -66.888
1306.8400, -66.971
1306.8600, -66.884
1306.8800, -66.921
1306.9000, -66.862
1306.9200, -66.943
1306.9400, -66.852
1306.9600, -66.968
1306.9800, -66.896
1307.0000, -66.951
1307.0200, -66.945
1307.0400, -66.979
1307.0600, -66.939
1307.0800, -66.877
1307.1000, -66.849
1307.1200, -66.913
1307.1400, -66.857
1307.1600, -66.728
1307.1800, -66.670
1307.2000, -66.662
1307.2200, -66.679
1307.2400, -66.575
1307.2600, -66.569
1307.2800, -66.423
1307.3000, -66.255
1307.3200, -66.286
1307.3400, -66.167
1307.3600, -66.166
1307.3800, -66.025
1307.4000, -66.016
1307.4200, -65.840
1307.4400, -65.971
1307.4600, -65.748
1307.4800, -65.661
1307.5000, -65.468
1307.5200, -65.613
1307.5400, -65.496
1307.5600, -65.450
1307.5800, -65.418
1307.6000, -65.334
1307.6200, -65.330
1307.6400, -65.278
1307.6600, -65.286
1307.6800, -65.264
1307.7000, -65.372
1307.7200, -65.280
1307.7400, -65.202
1307.7600, -65.151
1307.7800, -65.127
1307.8000, -65.155
1307.8200, -65.205
1307.8400, -65.233
1307.8600, -65.184
1307.8800, -65.283
1307.9000, -65.167
1307.9200, -65.304
1307.9400, -65.280
1307.9600, -65.231
1307.9800, -65.162
1308.0000, -65.162
1308.0200, -65.192
1308.0400, -65.231
1308.0600, -65.096
1308.0800, -65.014
1308.1000, -65.068
1308.1200, -64.885
1308.1400, -64.860
1308.1600, -64.882
1308.1800, -64.788
1308.2000, -64.774
1308.2200, -64.627
1308.2400, -64.604
1308.2600, -64.441
1308.2800, -64.497
1308.3000, -64.347
1308.3200, -64.397
1308.3400, -64.252
1308.3600, -64.280
1308.3800, -64.255
1308.4000, -64.047
1308.4200, -64.112
1308.4400, -64.092
1308.4600, -63.985
1308.4800, -63.966
1308.5000, -63.859
1308.5200, -63.895
1308.5400, -63.887
1308.5600, -63.792
1308.5800, -63.954
1308.6000, -63.909
1308.6200, -63.927
1308.6400, -64.047
1308.6600, -64.073
1308.6800, -63.933
1308.7000, -63.979
1308.7200, -64.070
1308.7400, -64.184
1308.7600, -64.140
1308.7800, -64.090
1308.8000, -64.150
1308.8200, -64.225
1308.8400, -64.207
1308.8600, -64.326
1308.8800, -64.287
1308.9000, -64.282
1308.9200, -64.293
1308.9400, -64.345
1308.9600, -64.280
1308.9800, -64.301
1309.0000, -64.136
1309.0200, -64.187
1309.0400, -64.110
1309.0600, -63.999
1309.0800, -64.176
1309.1000, -63.952
1309.1200, -63.828
1309.1400, -63.829
1309.1600, -63.849
1309.1800, -63.758
1309.2000, -63.684
1309.2200, -63.522
1309.2400, -63.531
1309.2600, -63.490
1309.2800, -63.481
1309.3000, -63.384
1309.3200, -63.336
1309.3400, -63.136
1309.3600, -63.181
1309.3800, -63.134
1309.4000, -63.114
1309.4200, -63.078
1309.4400, -63.089
1309.4600, -63.078
1309.4800, -63.098
1309.5000, -62.992
1309.5200, -63.152
1309.5400, -63.072
1309.5600, -63.123
1309.5800, -63.146
1309.6000, -63.214
1309.6200, -63.157
1309.6400, -63.182
1309.6600, -63.224
1309.6800, -63.417
1309.7000, -63.307
1309.7200, -63.385
1309.7400, -63.404
1309.7600, -63.593
1309.7800, -63.628
1309.8000, -63.652
1309.8200, -63.693
1309.8400, -63.800
1309.8600, -63.762
1309.8800, -63.760
1309.9000, -63.787
1309.9200, -63.836
1309.9400, -63.802
1309.9600, -63.677
1309.9800, -63.778
1310.0000, -63.808
1310.0200, -63.732
1310.0400, -63.633
1310.0600, -63.666
1310.0800, -63.539
1310.1000, -63.529
1310.1200, -63.437
1310.1400, -63.453
1310.1600, -63.412
1310.1800, -63.442
1310.2000, -63.264
1310.2200, -63.197
1310.2400, -63.137
1310.2600, -63.125
1310.2800, -63.060
1310.3000, -63.037
1310.3200, -63.055
1310.3400, -62.926
1310.3600, -63.006
1310.3800, -62.883
1310.4000, -62.894
1310.4200, -62.908
1310.4400, -62.922
1310.4600, -62.855
1310.4800, -62.850
1310.5000, -62.848
1310.5200, -62.991
1310.5400, -62.985
1310.5600, -62.853
1310.5800, -63.128
1310.6000, -63.046
1310.6200, -63.116
1310.6400, -63.185
1310.6600, -63.235
1310.6800, -63.281
1310.7000, -63.262
1310.7200, -63.389
1310.7400, -63.307
1310.7600, -63.444
1310.7800, -63.376
1310.8000, -63.478
1310.8200, -63.480
1310.8400, -63.575
1310.8600, -63.593
1310.8800, -63.714
1310.9000, -63.692
1310.9200, -63.721
1310.9400, -63.722
1310.9600, -63.750
1310.9800, -63.796
1311.0000, -63.865
1311.0200, -63.907
1311.0400, -63.784
1311.0600, -63.807
1311.0800, -63.863
1311.1000, -63.912
1311.1200, -63.833
1311.1400, -63.765
1311.1600, -63.865
1311.1800, -63.818
1311.2000, -63.880
1311.2200, -63.881
1311.2400, -63.773
1311.2600, -63.708
1311.2800, -63.707
1311.3000, -63.707
1311.3200, -63.550
1311.3400, -63.383
1311.3600, -63.321
1311.3800, -63.216
1311.4000, -63.202
1311.4200, -63.258
1311.4400, -63.489
1311.4600, -63.547
1311.4800, -63.777
1311.5000, -63.968
1311.5200, -63.917
1311.5400, -64.065
1311.5600, -64.051
1311.5800, -64.124
1311.6000, -64.066
1311.6200, -64.099
1311.6400, -64.082
1311.6600, -64.154
1311.6800, -64.162
1311.7000, -64.097
1311.7200, -64.144
1311.7400, -64.098
1311.7600, -64.131
1311.7800, -64.087
1311.8000, -64.110
1311.8200, -64.103
1311.8400, -64.248
1311.8600, -64.049
1311.8800, -64.093
1311.9000, -64.056
1311.9200, -64.052
1311.9400, -64.126
1311.9600, -63.987
1311.9800, -64.055
1312.0000, -63.935
1312.0200, -63.866
1312.0400, -63.866
1312.0600, -63.939
1312.0800, -63.746
1312.1000, -63.733
1312.1200, -63.627
1312.1400, -63.668
1312.1600, -63.680
1312.1800, -63.553
1312.2000, -63.491
1312.2200, -63.566
1312.2400, -63.575
1312.2600, -63.514
1312.2800, -63.532
1312.3000, -63.575
1312.3200, -63.642
1312.3400, -63.587
1312.3600, -63.652
1312.3800, -63.675
1312.4000, -63.754
1312.4200, -63.773
1312.4400, -63.748
1312.4600, -63.827
1312.4800, -63.982
1312.5000, -63.978
1312.5200, -63.993
1312.5400, -63.999
1312.5600, -64.129
1312.5800, -64.017
1312.6000, -64.225
1312.6200, -64.268
1312.6400, -64.356
1312.6600, -64.298
1312.6800, -64.261
1312.7000, -64.364
1312.7200, -64.307
1312.7400, -64.409
1312.7600, -64.446
1312.7800, -64.519
1312.8000, -64.394
1312.8200, -64.396
1312.8400, -64.326
1312.8600, -64.427
1312.8800, -64.421
1312.9000, -64.277
1312.9200, -64.225
1312.9400, -64.230
1312.9600, -64.225
1312.9800, -64.151
1313.0000, -64.079
1313.0200, -64.131
1313.0400, -64.118
1313.0600, -64.061
1313.0800, -64.031
1313.1000, -63.836
1313.1200, -63.908
1313.1400, -63.959
1313.1600, -63.982
1313.1800, -64.010
1313.2000, -63.972
1313.2200, -64.011
1313.2400, -63.958
1313.2600, -63.863
1313.2800, -63.992
1313.3000, -63.932
1313.3200, -64.036
1313.3400, -64.056
1313.3600, -64.206
1313.3800, -64.272
1313.4000, -64.222
1313.4200, -64.188
1313.4400, -64.338
1313.4600, -64.369
1313.4800, -64.367
1313.5000, -64.456
1313.5200, -64.522
1313.5400, -64.602
1313.5600, -64.745
1313.5800, -64.726
1313.6000, -64.792
1313.6200, -64.730
1313.6400, -64.860
1313.6600, -64.882
1313.6800, -64.930
1313.7000, -64.952
1313.7200, -64.922
1313.7400, -64.921
1313.7600, -64.966
1313.7800, -64.995
1313.8000, -64.921
1313.8200, -64.894
1313.8400, -64.834
1313.8600, -64.905
1313.8800, -64.920
1313.9000, -64.847
1313.9200, -64.701
1313.9400, -64.832
1313.9600, -64.909
1313.9800, -64.843
1314.0000, -64.752
1314.0200, -64.860
1314.0400, -64.804
1314.0600, -64.729
1314.0800, -64.728
1314.1000, -64.689
1314.1200, -64.812
1314.1400, -64.834
1314.1600, -64.729
1314.1800, -64.774
1314.2000, -64.872
1314.2200, -64.934
1314.2400, -64.884
1314.2600, -64.912
1314.2800, -64.946
1314.3000, -65.010
1314.3200, -65.161
1314.3400, -65.183
1314.3600, -65.147
1314.3800, -65.251
1314.4000, -65.291
1314.4200, -65.354
1314.4400, -65.466
1314.4600, -65.481
1314.4800, -65.623
1314.5000, -65.687
1314.5200, -65.751
1314.5400, -65.851
1314.5600, -65.901
1314.5800, -65.902
1314.6000, -65.885
1314.6200, -65.970
1314.6400, -66.005
1314.6600, -65.977
1314.6800, -65.999
1314.7000, -65.942
1314.7200, -66.119
1314.7400, -66.092
1314.7600, -66.128
1314.7800, -66.123
1314.8000, -65.993
1314.8200, -66.043
1314.8400, -66.011
1314.8600, -66.084
1314.8800, -65.988
1314.9000, -66.035
1314.9200, -66.097
1314.9400, -66.016
1314.9600, -65.991
1314.9800, -66.019
1315.0000, -65.948
1315.0200, -65.928
1315.0400, -66.059
1315.0600, -66.059
1315.0800, -66.151
1315.1000, -66.048
1315.1200, -66.183
1315.1400, -66.206
1315.1600, -66.239
1315.1800, -66.273
1315.2000, -66.331
1315.2200, -66.353
1315.2400, -66.441
1315.2600, -66.655
1315.2800, -66.529
1315.3000, -66.691
1315.3200, -66.765
1315.3400, -66.876
1315.3600, -66.940
1315.3800, -66.908
1315.4000, -67.082
1315.4200, -67.221
1315.4400, -67.232
1315.4600, -67.226
1315.4800, -67.325
1315.5000, -67.341
1315.5200, -67.415
1315.5400, -67.611
1315.5600, -67.567
1315.5800, -67.656
1315.6000, -67.639
1315.6200, -67.645
1315.6400, -67.736
1315.6600, -67.807
1315.6800, -67.776
1315.7000, -67.785
1315.7200, -67.835
1315.7400, -67.725
1315.7600, -67.809
1315.7800, -67.740
1315.8000, -67.802
1315.8200, -67.769
1315.8400, -67.740
1315.8600, -67.672
1315.8800, -67.789
1315.9000, -67.685
1315.9200, -67.657
1315.9400, -67.669
1315.9600, -67.711
1315.9800, -67.798
1316.0000, -67.810
1316.0200, -67.779
1316.0400, -67.753
1316.0600, -67.826
1316.0800, -67.815
1316.1000, -67.871
1316.1200, -67.877
1316.1400, -67.983
1316.1600, -67.935
1316.1800, -68.104
1316.2000, -68.126
1316.2200, -68.262
1316.2400, -68.303
1316.2600, -68.401
1316.2800, -68.438
1316.3000, -68.511
1316.3200, -68.584
1316.3400, -68.724
1316.3600, -68.715
1316.3800, -68.832
1316.4000, -68.976
1316.4200, -69.008
1316.4400, -69.138
1316.4600, -69.076
1316.4800, -69.059
1316.5000, -69.201
1316.5200, -69.307
1316.5400, -69.360
1316.5600, -69.398
1316.5800, -69.386
1316.6000, -69.429
1316.6200, -69.478
1316.6400, -69.397
1316.6600, -69.415
1316.6800, -69.444
1316.7000, -69.455
1316.7200, -69.436
1316.7400, -69.411
1316.7600, -69.352
1316.7800, -69.464
1316.8000, -69.332
1316.8200, -69.395
1316.8400, -69.318
1316.8600, -69.459
1316.8800, -69.391
1316.9000, -69.460
1316.9200, -69.364
1316.9400, -69.453
1316.9600, -69.424
1316.9800, -69.528
1317.0000, -69.617
1317.0200, -69.422
1317.0400, -69.646
1317.0600, -69.561
1317.0800, -69.583
1317.1000, -69.687
1317.1200, -69.672
1317.1400, -69.758
1317.1600, -69.806
1317.1800, -69.997
1317.2000, -70.037
1317.2200, -70.000
1317.2400, -70.113
1317.2600, -70.109
1317.2800, -70.236
1317.3000, -70.309
1317.3200, -70.409
1317.3400, -70.574
1317.3600, -70.601
1317.3800, -70.743
1317.4000, -70.793
1317.4200, -70.872
1317.4400, -70.833
1317.4600, -70.877
1317.4800, -71.082
1317.5000, -71.046
1317.5200, -70.947
1317.5400, -71.092
1317.5600, -71.166
1317.5800, -71.061
1317.6000, -71.180
1317.6200, -71.098
1317.6400, -71.089
1317.6600, -71.127
1317.6800, -71.004
1317.7000, -70.960
1317.7200, -70.964
1317.7400, -70.871
1317.7600, -70.977
1317.7800, -70.910
1317.8000, -70.855
1317.8200, -70.916
1317.8400, -70.789
1317.8600, -70.700
1317.8800, -70.723
1317.9000, -70.646
1317.9200, -70.655
1317.9400, -70.745
1317.9600, -70.660
1317.9800, -70.689
1318.0000, -70.658
1318.0200, -70.747
1318.0400, -70.691
1318.0600, -70.672
1318.0800, -70.716
1318.1000, -70.733
1318.1200, -70.783
1318.1400, -70.791
1318.1600, -70.909
1318.1800, -70.920
1318.2000, -70.931
1318.2200, -70.989
1318.2400, -71.068
1318.2600, -71.025
1318.2800, -71.145
1318.3000, -71.205
1318.3200, -71.299
1318.3400, -71.431
1318.3600, -71.269
1318.3800, -71.365
1318.4000, -71.407
1318.4200, -71.537
1318.4400, -71.410
1318.4600, -71.476
1318.4800, -71.417
1318.5000, -71.502
1318.5200, -71.503
1318.5400, -71.421
1318.5600, -71.369
1318.5800, -71.442
1318.6000, -71.460
1318.6200, -71.350
1318.6400, -71.318
1318.6600, -71.316
1318.6800, -71.344
1318.7000, -71.185
1318.7200, -71.132
1318.7400, -71.033
1318.7600, -71.123
1318.7800, -71.011
1318.8000, -70.990
1318.8200, -70.914
1318.8400, -70.867
1318.8600, -70.864
1318.8800, -70.889
1318.9000, -70.806
1318.9200, -70.749
1318.9400, -70.813
1318.9600, -70.782
1318.9800, -70.811
1319.0000, -70.752
1319.0200, -70.799
1319.0400, -70.775
1319.0600, -70.774
1319.0800, -70.740
1319.1000, -70.709
1319.1200, -70.827
1319.1400, -70.801
1319.1600, -70.846
1319.1800, -70.837
1319.2000, -70.743
1319.2200, -70.841
1319.2400, -70.913
1319.2600, -70.817
1319.2800, -70.919
1319.3000, -70.850
1319.3200, -70.882
1319.3400, -70.967
1319.3600, -70.932
1319.3800, -70.915
1319.4000, -70.789
1319.4200, -70.783
1319.4400, -70.822
1319.4600, -70.744
1319.4800, -70.678
1319.5000, -70.754
1319.5200, -70.527
1319.5400, -70.657
1319.5600, -70.468
1319.5800, -70.523
1319.6000, -70.341
1319.6200, -70.231
1319.6400, -70.287
1319.6600, -70.216
1319.6800, -70.029
1319.7000, -69.953
1319.7200, -69.965
1319.7400, -69.849
1319.7600, -69.890
1319.7800, -69.778
1319.8000, -69.562
1319.8200, -69.618
1319.8400, -69.663
1319.8600, -69.499
1319.8800, -69.590
1319.9000, -69.463
1319.9200, -69.549
1319.9400, -69.486
1319.9600, -69.481
1319.9800, -69.417
1320.0000, -69.494
1320.0200, -69.493
1320.0400, -69.383
1320.0600, -69.399
1320.0800, -69.382
1320.1000, -69.402
1320.1200, -69.459
1320.1400, -69.338
1320.1600, -69.356
1320.1800, -69.363
1320.2000, -69.462
1320.2200, -69.436
1320.2400, -69.429
1320.2600, -69.378
1320.2800, -69.483
1320.3000, -69.368
1320.3200, -69.290
1320.3400, -69.272
1320.3600, -69.253
1320.3800, -69.151
1320.4000, -69.174
1320.4200, -69.102
1320.4400, -69.027
1320.4600, -68.946
1320.4800, -69.024
1320.5000, -68.882
1320.5200, -68.827
1320.5400, -68.732
1320.5600, -68.625
1320.5800, -68.562
1320.6000, -68.566
1320.6200, -68.524
1320.6400, -68.440
1320.6600, -68.419
1320.6800, -68.212
1320.7000, -68.189
1320.7200, -68.160
1320.7400, -68.114
1320.7600, -68.117
1320.7800, -68.004
1320.8000, -68.074
1320.8200, -68.010
1320.8400, -67.925
1320.8600, -67.902
1320.8800, -67.909
1320.9000, -67.816
1320.9200, -67.883
1320.9400, -67.831
1320.9600, -67.865
1320.9800, -67.893
1321.0000, -67.879
1321.0200, -67.880
1321.0400, -67.877
1321.0600, -67.882
1321.0800, -67.923
1321.1000, -67.893
1321.1200, -67.984
1321.1400, -67.977
1321.1600, -67.876
1321.1800, -67.874
1321.2000, -67.905
1321.2200, -67.931
1321.2400, -67.974
1321.2600, -67.913
1321.2800, -67.964
1321.3000, -67.901
1321.3200, -67.965
1321.3400, -67.930
1321.3600, -67.847
1321.3800, -67.851
1321.4000, -67.688
1321.4200, -67.725
1321.4400, -67.673
1321.4600, -67.638
1321.4800, -67.506
1321.5000, -67.560
1321.5200, -67.498
1321.5400, -67.412
1321.5600, -67.403
1321.5800, -67.325
1321.6000, -67.401
1321.6200, -67.170
1321.6400, -67.207
1321.6600, -67.190
1321.6800, -67.091
1321.7000, -66.987
1321.7200, -67.085
1321.7400, -67.050
1321.7600, -66.945
1321.7800, -66.946
1321.8000, -66.973
1321.8200, -66.893
1321.8400, -66.932
1321.8600, -66.865
1321.8800, -66.743
1321.9000, -66.934
1321.9200, -66.817
1321.9400, -66.884
1321.9600, -66.865
1321.9800, -67.045
1322.0000, -67.034
1322.0200, -66.951
1322.0400, -66.992
1322.0600, -67.042
1322.0800, -67.043
1322.1000, -67.090
1322.1200, -67.184
1322.1400, -67.128
1322.1600, -67.114
1322.1800, -67.136
1322.2000, -67.239
1322.2200, -67.140
1322.2400, -67.249
1322.2600, -67.227
1322.2800, -67.253
1322.3000, -67.104
1322.3200, -67.184
1322.3400, -67.160
1322.3600, -67.186
1322.3800, -67.115
1322.4000, -67.079
1322.4200, -67.070
1322.4400, -66.996
1322.4600, -66.986
1322.4800, -66.955
1322.5000, -66.972
1322.5200, -66.999
1322.5400, -66.862
1322.5600, -66.746
1322.5800, -66.900
1322.6000, -66.791
1322.6200, -66.759
1322.6400, -66.711
1322.6600, -66.729
1322.6800, -66.648
1322.7000, -66.590
1322.7200, -66.552
1322.7400, -66.494
1322.7600, -66.582
1322.7800, -66.634
1322.8000, -66.624
1322.8200, -66.521
1322.8400, -66.569
1322.8600, -66.563
1322.8800, -66.713
1322.9000, -66.623
1322.9200, -66.609
1322.9400, -66.806
1322.9600, -66.686
1322.9800, -66.693
1323.0000, -66.824
1323.0200, -66.831
1323.0400, -66.810
1323.0600, -66.921
1323.0800, -66.951
1323.1000, -66.983
1323.1200, -67.011
1323.1400, -67.007
1323.1600, -67.030
1323.1800, -67.163
1323.2000, -67.130
1323.2200, -67.137
1323.2400, -67.227
1323.2600, -67.180
1323.2800, -67.115
1323.3000, -67.149
1323.3200, -67.094
1323.3400, -67.140
1323.3600, -67.175
1323.3800, -67.080
1323.4000, -67.140
1323.4200, -67.000
1323.4400, -67.052
1323.4600, -66.932
1323.4800, -66.997
1323.5000, -66.854
1323.5200, -66.872
1323.5400, -66.901
1323.5600, -66.833
1323.5800, -66.827
1323.6000, -66.826
1323.6200, -66.780
1323.6400, -66.815
1323.6600, -66.819
1323.6800, -66.677
1323.7000, -66.837
1323.7200, -66.750
1323.7400, -66.774
1323.7600, -66.753
1323.7800, -66.808
1323.8000, -66.829
1323.8200, -66.741
1323.8400, -66.807
1323.8600, -66.715
1323.8800, -66.889
1323.9000, -66.904
1323.9200, -66.937
1323.9400, -67.047
1323.9600, -66.941
1323.9800, -67.093
1324.0000, -67.014
1324.0200, -67.220
1324.0400, -67.129
1324.0600, -67.184
1324.0800, -67.244
1324.1000, -67.344
1324.1200, -67.318
1324.1400, -67.381
1324.1600, -67.323
1324.1800, -67.297
1324.2000, -67.399
1324.2200, -67.431
1324.2400, -67.431
1324.2600, -67.389
1324.2800, -67.381
1324.3000, -67.459
1324.3200, -67.401
1324.3400, -67.329
1324.3600, -67.409
1324.3800, -67.372
1324.4000, -67.317
1324.4200, -67.313
1324.4400, -67.195
1324.4600, -67.272
1324.4800, -67.261
1324.5000, -67.206
1324.5200, -67.223
1324.5400, -67.185
1324.5600, -67.210
1324.5800, -67.095
1324.6000, -67.157
1324.6200, -67.147
1324.6400, -67.185
1324.6600, -67.077
1324.6800, -67.172
1324.7000, -67.058
1324.7200, -67.080
1324.7400, -67.047
1324.7600, -67.029
1324.7800, -67.153
1324.8000, -67.183
1324.8200, -67.117
1324.8400, -67.146
1324.8600, -67.254
1324.8800, -67.128
1324.9000, -67.256
1324.9200, -67.294
1324.9400, -67.254
1324.9600, -67.324
1324.9800, -67.345
1325.0000, -67.368
1325.0200, -67.380
1325.0400, -67.468
1325.0600, -67.516
1325.0800, -67.554
1325.1000, -67.625
1325.1200, -67.611
1325.1400, -67.587
1325.1600, -67.656
1325.1800, -67.572
1325.2000, -67.588
1325.2200, -67.581
1325.2400, -67.631
1325.2600, -67.614
1325.2800, -67.526
1325.3000, -67.597
1325.3200, -67.557
1325.3400, -67.610
1325.3600, -67.580
1325.3800, -67.609
1325.4000, -67.458
1325.4200, -67.553
1325.4400, -67.571
1325.4600, -67.508
1325.4800, -67.442
1325.5000, -67.380
1325.5200, -67.336
1325.5400, -67.481
1325.5600, -67.503
1325.5800, -67.497
1325.6000, -67.269
1325.6200, -67.345
1325.6400, -67.345
1325.6600, -67.326
1325.6800, -67.376
1325.7000, -67.393
1325.7200, -67.377
1325.7400, -67.318
1325.7600, -67.349
1325.7800, -67.445
1325.8000, -67.448
1325.8200, -67.375
1325.8400, -67.477
1325.8600, -67.555
1325.8800, -67.534
1325.9000, -67.623
1325.9200, -67.594
1325.9400, -67.620
1325.9600, -67.609
1325.9800, -67.616
1326.0000, -67.734
1326.0200, -67.785
1326.0400, -67.834
1326.0600, -67.775
1326.0800, -67.871
1326.1000, -67.750
1326.1200, -67.820
1326.1400, -67.856
1326.1600, -67.840
1326.1800, -67.853
1326.2000, -67.962
1326.2200, -67.780
1326.2400, -67.835
1326.2600, -67.853
1326.2800, -67.815
1326.3000, -67.850
1326.3200, -67.772
1326.3400, -67.777
1326.3600, -67.790
1326.3800, -67.810
1326.4000, -67.749
1326.4200, -67.806
1326.4400, -67.680
1326.4600, -67.711
1326.4800, -67.626
1326.5000, -67.768
1326.5200, -67.662
1326.5400, -67.689
1326.5600, -67.703
1326.5800, -67.724
1326.6000, -67.807
1326.6200, -67.746
1326.6400, -67.777
1326.6600, -67.776
1326.6800, -67.793
1326.7000, -67.838
1326.7200, -67.927
1326.7400, -67.856
1326.7600, -67.952
1326.7800, -68.022
1326.8000, -68.043
1326.8200, -68.116
1326.8400, -68.148
1326.8600, -68.119
1326.8800, -68.222
1326.9000, -68.215
1326.9200, -68.286
1326.9400, -68.165
1326.9600, -68.253
1326.9800, -68.408
1327.0000, -68.447
1327.0200, -68.455
1327.0400, -68.302
1327.0600, -68.456
1327.0800, -68.409
1327.1000, -68.494
1327.1200, -68.547
1327.1400, -68.500
1327.1600, -68.533
1327.1800, -68.463
1327.2000, -68.459
1327.2200, -68.525
1327.2400, -68.479
1327.2600, -68.496
1327.2800, -68.525
1327.3000, -68.519
1327.3200, -68.490
1327.3400, -68.494
1327.3600, -68.397
1327.3800, -68.529
1327.4000, -68.434
1327.4200, -68.591
1327.4400, -68.486
1327.4600, -68.475
1327.4800, -68.467
1327.5000, -68.577
1327.5200, -68.522
1327.5400, -68.594
1327.5600, -68.533
1327.5800, -68.574
1327.6000, -68.649
1327.6200, -68.637
1327.6400, -68.692
1327.6600, -68.696
1327.6800, -68.769
1327.7000, -68.876
1327.7200, -68.867
1327.7400, -68.810
1327.7600, -68.874
1327.7800, -68.946
1327.8000, -69.167
1327.8200, -69.120
1327.8400, -69.206
1327.8600, -69.109
1327.8800, -69.330
1327.9000, -69.443
1327.9200, -69.308
1327.9400, -69.373
1327.9600, -69.383
1327.9800, -69.451
1328.0000, -69.587
1328.0200, -69.593
1328.0400, -69.576
1328.0600, -69.575
1328.0800, -69.702
1328.1000, -69.601
1328.1200, -69.653
1328.1400, -69.657
1328.1600, -69.714
1328.1800, -69.726
1328.2000, -69.640
1328.2200, -69.675
1328.2400, -69.709
1328.2600, -69.763
1328.2800, -69.757
1328.3000, -69.699
1328.3200, -69.850
1328.3400, -69.708
1328.3600, -69.741
1328.3800, -69.650
1328.4000, -69.761
1328.4200, -69.691
1328.4400, -69.766
1328.4600, -69.800
1328.4800, -69.894
1328.5000, -69.784
1328.5200, -69.847
1328.5400, -69.807
1328.5600, -69.942
1328.5800, -69.914
1328.6000, -69.921
1328.6200, -70.008
1328.6400, -70.020
1328.6600, -70.112
1328.6800, -70.205
1328.7000, -70.137
1328.7200, -70.287
1328.7400, -70.314
1328.7600, -70.483
1328.7800, -70.464
1328.8000, -70.492
1328.8200, -70.526
1328.8400, -70.578
1328.8600, -70.604
1328.8800, -70.755
1328.9000, -70.750
1328.9200, -70.867
1328.9400, -70.868
1328.9600, -70.845
1328.9800, -70.987
1329.0000, -71.001
1329.0200, -70.906
1329.0400, -70.948
1329.0600, -70.996
1329.0800, -70.976
1329.1000, -70.954
1329.1200, -70.984
1329.1400, -71.042
1329.1600, -70.957
1329.1800, -70.888
1329.2000, -71.057
1329.2200, -71.141
1329.2400, -71.015
1329.2600, -70.956
1329.2800, -70.988
1329.3000, -71.004
1329.3200, -70.985
1329.3400, -71.071
1329.3600, -71.000
1329.3800, -71.062
1329.4000, -70.937
1329.4200, -71.032
1329.4400, -71.042
1329.4600, -71.142
1329.4800, -71.142
1329.5000, -71.184
1329.5200, -71.145
1329.5400, -71.101
1329.5600, -71.234
1329.5800, -71.284
1329.6000, -71.352
1329.6200, -71.361
1329.6400, -71.307
1329.6600, -71.364
1329.6800, -71.564
1329.7000, -71.609
1329.7200, -71.582
1329.7400, -71.654
1329.7600, -71.752
1329.7800, -71.796
1329.8000, -71.760
1329.8200, -71.816
1329.8400, -71.871
1329.8600, -71.823
1329.8800, -71.861
1329.9000, -72.026
1329.9200, -71.967
1329.9400, -71.958
1329.9600, -71.988
1329.9800, -72.034
1330.0000, -72.183
1330.0200, -72.129
1330.0400, -72.200
1330.0600, -72.062
1330.0800, -72.238
1330.1000, -72.226
1330.1200, -72.162
1330.1400, -72.225
1330.1600, -72.187
1330.1800, -72.199
1330.2000, -72.163
1330.2200, -72.136
1330.2400, -72.064
1330.2600, -72.184
1330.2800, -72.207
1330.3000, -72.211
1330.3200, -72.139
1330.3400, -72.125
1330.3600, -72.133
1330.3800, -72.091
1330.4000, -72.167
1330.4200, -72.039
1330.4400, -72.281
1330.4600, -72.276
1330.4800, -72.235
1330.5000, -72.253
1330.5200, -72.257
1330.5400, -72.290
1330.5600, -72.218
1330.5800, -72.323
1330.6000, -72.316
1330.6200, -72.359
1330.6400, -72.451
1330.6600, -72.311
1330.6800, -72.444
1330.7000, -72.576
1330.7200, -72.536
1330.7400, -72.564
1330.7600, -72.657
1330.7800, -72.509
1330.8000, -72.766
1330.8200, -72.624
1330.8400, -72.672
1330.8600, -72.753
1330.8800, -72.888
1330.9000, -72.757
1330.9200, -72.779
1330.9400, -72.827
1330.9600, -72.796
1330.9800, -72.836
1331.0000, -72.831
1331.0200, -72.877
1331.0400, -72.871
1331.0600, -72.745
1331.0800, -72.795
1331.1000, -72.736
1331.1200, -72.695
1331.1400, -72.584
1331.1600, -72.591
1331.1800, -72.536
1331.2000, -72.524
1331.2200, -72.445
1331.2400, -72.441
1331.2600, -72.350
1331.2800, -72.359
1331.3000, -72.394
1331.3200, -72.268
1331.3400, -72.257
1331.3600, -72.225
1331.3800, -72.279
1331.4000, -72.185
1331.4200, -72.127
1331.4400, -72.124
1331.4600, -72.034
1331.4800, -72.106
1331.5000, -72.079
1331.5200, -72.044
1331.5400, -72.005
1331.5600, -71.971
1331.5800, -71.874
1331.6000, -71.993
1331.6200, -72.104
1331.6400, -71.936
1331.6600, -72.051
1331.6800, -72.023
1331.7000, -72.102
1331.7200, -72.058
1331.7400, -72.074
1331.7600, -72.067
1331.7800, -72.004
1331.8000, -72.060
1331.8200, -72.109
1331.8400, -72.045
1331.8600, -72.034
1331.8800, -71.984
1331.9000, -71.957
1331.9200, -71.897
1331.9400, -71.882
1331.9600, -71.959
1331.9800, -71.857
1332.0000, -71.835
1332.0200, -71.865
1332.0400, -71.719
1332.0600, -71.754
1332.0800, -71.598
1332.1000, -71.700
1332.1200, -71.704
1332.1400, -71.531
1332.1600, -71.469
1332.1800, -71.457
1332.2000, -71.394
1332.2200, -71.274
1332.2400, -71.307
1332.2600, -71.248
1332.2800, -71.095
1332.3000, -71.191
1332.3200, -71.078
1332.3400, -70.963
1332.3600, -70.964
1332.3800, -70.848
1332.4000, -70.919
1332.4200, -70.861
1332.4400, -70.935
1332.4600, -70.759
1332.4800, -70.750
1332.5000, -70.774
1332.5200, -70.757
1332.5400, -70.678
1332.5600, -70.701
1332.5800, -70.630
1332.6000, -70.643
1332.6200, -70.648
1332.6400, -70.558
1332.6600, -70.663
1332.6800, -70.625
1332.7000, -70.678
1332.7200, -70.587
1332.7400, -70.550
1332.7600, -70.512
1332.7800, -70.515
1332.8000, -70.563
1332.8200, -70.561
1332.8400, -70.451
1332.8600, -70.478
1332.8800, -70.477
1332.9000, -70.507
1332.9200, -70.439
1332.9400, -70.448
1332.9600, -70.404
1332.9800, -70.261
1333.0000, -70.283
1333.0200, -70.246
1333.0400, -70.169
1333.0600, -70.079
1333.0800, -69.982
1333.1000, -70.013
1333.1200, -70.104
1333.1400, -69.874
1333.1600, -69.814
1333.1800, -69.801
1333.2000, -69.721
1333.2200, -69.646
1333.2400, -69.651
1333.2600, -69.550
1333.2800, -69.584
1333.3000, -69.509
1333.3200, -69.418
1333.3400, -69.275
1333.3600, -69.297
1333.3800, -69.250
1333.4000, -69.244
1333.4200, -69.215
1333.4400, -69.281
1333.4600, -69.262
1333.4800, -69.217
1333.5000, -69.007
1333.5200, -69.044
1333.5400, -68.960
1333.5600, -68.997
1333.5800, -69.033
1333.6000, -69.024
1333.6200, -68.990
1333.6400, -68.967
1333.6600, -68.945
1333.6800, -68.991
1333.7000, -68.913
1333.7200, -69.015
1333.7400, -68.983
1333.7600, -68.976
1333.7800, -68.946
1333.8000, -68.991
1333.8200, -68.872
1333.8400, -68.964
1333.8600, -68.810
1333.8800, -68.806
1333.9000, -68.786
1333.9200, -68.826
1333.9400, -68.748
1333.9600, -68.790
1333.9800, -68.765
1334.0000, -68.709
1334.0200, -68.657
1334.0400, -68.609
1334.0600, -68.637
1334.0800, -68.560
1334.1000, -68.445
1334.1200, -68.424
1334.1400, -68.357
1334.1600, -68.470
1334.1800, -68.276
1334.2000, -68.331
1334.2200, -68.293
1334.2400, -68.186
1334.2600, -68.020
1334.2800, -68.091
1334.3000, -68.085
1334.3200, -67.979
1334.3400, -67.984
1334.3600, -67.905
1334.3800, -67.948
1334.4000, -67.945
1334.4200, -67.855
1334.4400, -67.755
1334.4600, -67.846
1334.4800, -67.832
1334.5000, -67.832
1334.5200, -67.854
1334.5400, -67.927
1334.5600, -67.859
1334.5800, -67.932
1334.6000, -67.856
1334.6200, -67.811
1334.6400, -67.972
1334.6600, -67.901
1334.6800, -67.848
1334.7000, -67.902
1334.7200, -67.946
1334.7400, -67.891
1334.7600, -67.971
1334.7800, -67.952
1334.8000, -67.885
1334.8200, -67.920
1334.8400, -67.969
1334.8600, -67.865
1334.8800, -67.883
1334.9000, -67.805
1334.9200, -67.824
1334.9400, -67.828
1334.9600, -67.857
1334.9800, -67.828
1335.0000, -67.756
1335.0200, -67.748
1335.0400, -67.636
1335.0600, -67.564
1335.0800, -67.637
1335.1000, -67.610
1335.1200, -67.628
1335.1400, -67.506
1335.1600, -67.574
1335.1800, -67.357
1335.2000, -67.468
1335.2200, -67.454
1335.2400, -67.489
1335.2600, -67.335
1335.2800, -67.295
1335.3000, -67.283
1335.3200, -67.256
1335.3400, -67.249
1335.3600, -67.303
1335.3800, -67.121
1335.4000, -67.193
1335.4200, -67.254
1335.4400, -67.222
1335.4600, -67.288
1335.4800, -67.299
1335.5000, -67.293
1335.5200, -67.303
1335.5400, -67.339
1335.5600, -67.365
1335.5800, -67.298
1335.6000, -67.286
1335.6200, -67.316
1335.6400, -67.323
1335.6600, -67.405
1335.6800, -67.217
1335.7000, -67.406
1335.7200, -67.416
1335.7400, -67.388
1335.7600, -67.406
1335.7800, -67.506
1335.8000, -67.487
1335.8200, -67.462
1335.8400, -67.320
1335.8600, -67.349
1335.8800, -67.419
1335.9000, -67.367
1335.9200, -67.425
1335.9400, -67.255
1335.9600, -67.326
1335.9800, -67.499
1336.0000, -67.396
1336.0200, -67.352
1336.0400, -67.311
1336.0600, -67.224
1336.0800, -67.210
1336.1000, -67.200
1336.1200, -67.163
1336.1400, -67.056
1336.1600, -67.073
1336.1800, -67.057
1336.2000, -67.125
1336.2200, -67.068
1336.2400, -66.992
1336.2600, -66.955
1336.2800, -66.923
1336.3000, -66.933
1336.3200, -66.972
1336.3400, -66.803
1336.3600, -66.816
1336.3800, -66.782
1336.4000, -66.896
1336.4200, -66.821
1336.4400, -66.860
1336.4600, -66.903
1336.4800, -66.860
1336.5000, -66.989
1336.5200, -66.999
1336.5400, -67.052
1336.5600, -67.029
1336.5800, -66.947
1336.6000, -67.012
1336.6200, -66.948
1336.6400, -67.062
1336.6600, -67.062
1336.6800, -67.069
1336.7000, -67.090
1336.7200, -67.190
1336.7400, -67.229
1336.7600, -67.141
1336.7800, -67.173
1336.8000, -67.127
1336.8200, -67.107
1336.8400, -67.124
1336.8600, -67.153
1336.8800, -67.107
1336.9000, -67.041
1336.9200, -67.168
1336.9400, -66.965
1336.9600, -66.893
1336.9800, -67.057
1337.0000, -67.004
1337.0200, -66.904
1337.0400, -66.869
1337.0600, -66.790
1337.0800, -66.827
1337.1000, -66.780
1337.1200, -66.742
1337.1400, -66.796
1337.1600, -66.653
1337.1800, -66.670
1337.2000, -66.593
1337.2200, -66.600
1337.2400, -66.625
1337.2600, -66.615
1337.2800, -66.553
1337.3000, -66.595
1337.3200, -66.573
1337.3400, -66.466
1337.3600, -66.648
1337.3800, -66.537
1337.4000, -66.545
1337.4200, -66.646
1337.4400, -66.583
1337.4600, -66.671
1337.4800, -66.657
1337.5000, -66.664
1337.5200, -66.635
1337.5400, -66.759
1337.5600, -66.639
1337.5800, -66.756
1337.6000, -66.626
1337.6200, -66.722
1337.6400, -66.709
1337.6600, -66.828
1337.6800, -66.748
1337.7000, -66.862
1337.7200, -66.807
1337.7400, -66.770
1337.7600, -66.831
1337.7800, -66.735
1337.8000, -66.792
1337.8200, -66.779
1337.8400, -66.831
1337.8600, -66.814
1337.8800, -66.775
1337.9000, -66.814
1337.9200, -66.814
1337.9400, -66.777
1337.9600, -66.768
1337.9800, -66.650
1338.0000, -66.647
1338.0200, -66.682
1338.0400, -66.607
1338.0600, -66.579
1338.0800, -66.605
1338.1000, -66.549
1338.1200, -66.613
1338.1400, -66.499
1338.1600, -66.443
1338.1800, -66.515
1338.2000, -66.481
1338.2200, -66.488
1338.2400, -66.406
1338.2600, -66.441
1338.2800, -66.425
1338.3000, -66.548
1338.3200, -66.505
1338.3400, -66.533
1338.3600, -66.419
1338.3800, -66.590
1338.4000, -66.541
1338.4200, -66.677
1338.4400, -66.423
1338.4600, -66.606
1338.4800, -66.692
1338.5000, -66.613
1338.5200, -66.822
1338.5400, -66.661
1338.5600, -66.763
1338.5800, -66.840
1338.6000, -66.736
1338.6200, -66.787
1338.6400, -66.953
1338.6600, -66.920
1338.6800, -66.979
1338.7000, -66.926
1338.7200, -67.057
1338.7400, -67.006
1338.7600, -67.037
1338.7800, -67.021
1338.8000, -67.018
1338.8200, -67.162
1338.8400, -67.039
1338.8600, -67.008
1338.8800, -67.085
1338.9000, -66.998
1338.9200, -67.087
1338.9400, -67.044
1338.9600, -67.071
1338.9800, -66.927
1339.0000, -66.914
1339.0200, -66.994
1339.0400, -66.961
1339.0600, -66.880
1339.0800, -67.042
1339.1000, -66.939
1339.1200, -66.909
1339.1400, -66.964
1339.1600, -66.917
1339.1800, -66.892
1339.2000, -66.919
1339.2200, -66.962
1339.2400, -67.050
1339.2600, -67.040
1339.2800, -67.025
1339.3000, -67.011
1339.3200, -67.147
1339.3400, -67.049
1339.3600, -67.214
1339.3800, -67.099
1339.4000, -67.191
1339.4200, -67.244
1339.4400, -67.267
1339.4600, -67.252
1339.4800, -67.266
1339.5000, -67.349
1339.5200, -67.475
1339.5400, -67.478
1339.5600, -67.517
1339.5800, -67.516
1339.6000, -67.676
1339.6200, -67.683
1339.6400, -67.686
1339.6600, -67.550
1339.6800, -67.755
1339.7000, -67.738
1339.7200, -67.897
1339.7400, -67.806
1339.7600, -67.806
1339.7800, -67.858
1339.8000, -67.849
1339.8200, -67.976
1339.8400, -67.973
1339.8600, -67.912
1339.8800, -67.857
1339.9000, -68.052
1339.9200, -67.989
1339.9400, -67.945
1339.9600, -67.944
1339.9800, -67.890
1340.0000, -68.056
1340.0200, -68.047
1340.0400, -67.995
1340.0600, -68.257
1340.0800, -68.147
1340.1000, -68.201
1340.1200, -68.196
1340.1400, -68.187
1340.1600, -68.088
1340.1800, -68.200
1340.2000, -68.274
1340.2200, -68.302
1340.2400, -68.316
1340.2600, -68.215
1340.2800, -68.269
1340.3000, -68.349
1340.3200, -68.269
1340.3400, -68.332
1340.3600, -68.529
1340.3800, -68.449
1340.4000, -68.441
1340.4200, -68.469
1340.4400, -68.541
1340.4600, -68.618
1340.4800, -68.699
1340.5000, -68.718
1340.5200, -68.838
1340.5400, -68.828
1340.5600, -68.913
1340.5800, -68.824
1340.6000, -69.056
1340.6200, -69.105
1340.6400, -69.106
1340.6600, -69.141
1340.6800, -69.170
1340.7000, -69.157
1340.7200, -69.227
1340.7400, -69.270
1340.7600, -69.396
1340.7800, -69.301
1340.8000, -69.449
1340.8200, -69.387
1340.8400, -69.463
1340.8600, -69.478
1340.8800, -69.407
1340.9000, -69.460
1340.9200, -69.457
1340.9400, -69.474
1340.9600, -69.623
1340.9800, -69.678
1341.0000, -69.682
1341.0200, -69.581
1341.0400, -69.610
1341.0600, -69.627
1341.0800, -69.657
1341.1000, -69.504
1341.1200, -69.616
1341.1400, -69.614
1341.1600, -69.715
1341.1800, -69.708
1341.2000, -69.634
1341.2200, -69.799
1341.2400, -69.836
1341.2600, -69.964
1341.2800, -69.941
1341.3000, -70.005
1341.3200, -69.984
1341.3400, -70.009
1341.3600, -69.966
1341.3800, -70.159
1341.4000, -70.045
1341.4200, -70.106
1341.4400, -70.353
1341.4600, -70.322
1341.4800, -70.461
1341.5000, -70.407
1341.5200, -70.592
1341.5400, -70.464
1341.5600, -70.623
1341.5800, -70.644
1341.6000, -70.775
1341.6200, -70.627
1341.6400, -70.852
1341.6600, -70.838
1341.6800, -70.856
1341.7000, -70.935
1341.7200, -70.975
1341.7400, -70.916
1341.7600, -71.003
1341.7800, -71.058
1341.8000, -71.044
1341.8200, -71.227
1341.8400, -71.039
1341.8600, -71.232
1341.8800, -71.177
1341.9000, -71.233
1341.9200, -71.190
1341.9400, -71.276
1341.9600, -71.337
1341.9800, -71.356
1342.0000, -71.391
1342.0200, -71.349
1342.0400, -71.392
1342.0600, -71.357
1342.0800, -71.384
1342.1000, -71.509
1342.1200, -71.502
1342.1400, -71.600
1342.1600, -71.525
1342.1800, -71.609
1342.2000, -71.630
1342.2200, -71.578
1342.2400, -71.675
1342.2600, -71.700
1342.2800, -71.659
1342.3000, -71.822
1342.3200, -71.817
1342.3400, -71.912
1342.3600, -71.910
1342.3800, -71.950
1342.4000, -71.947
1342.4200, -72.037
1342.4400, -72.118
1342.4600, -71.979
1342.4800, -72.089
1342.5000, -72.124
1342.5200, -72.211
1342.5400, -72.155
1342.5600, -72.068
1342.5800, -72.161
1342.6000, -72.374
1342.6200, -72.224
1342.6400, -72.316
1342.6600, -72.414
1342.6800, -72.328
1342.7000, -72.380
1342.7200, -72.398
1342.7400, -72.405
1342.7600, -72.469
1342.7800, -72.369
1342.8000, -72.487
1342.8200, -72.506
1342.8400, -72.541
1342.8600, -72.518
1342.8800, -72.563
1342.9000, -72.561
1342.9200, -72.634
1342.9400, -72.549
1342.9600, -72.728
1342.9800, -72.690
1343.0000, -72.591
1343.0200, -72.615
1343.0400, -72.697
1343.0600, -72.713
1343.0800, -72.693
1343.1000, -72.756
1343.1200, -72.791
1343.1400, -72.744
1343.1600, -72.858
1343.1800, -72.720
1343.2000, -72.778
1343.2200, -72.778
1343.2400, -72.811
1343.2600, -72.810
1343.2800, -72.883
1343.3000, -72.777
1343.3200, -72.858
1343.3400, -72.928
1343.3600, -72.867
1343.3800, -72.977
1343.4000, -73.073
1343.4200, -73.032
1343.4400, -73.130
1343.4600, -73.150
1343.4800, -73.204
1343.5000, -73.166
1343.5200, -73.281
1343.5400, -73.357
1343.5600, -73.386
1343.5800, -73.327
1343.6000, -73.342
1343.6200, -73.572
1343.6400, -73.586
1343.6600, -73.441
1343.6800, -73.654
1343.7000, -73.719
1343.7200, -73.633
1343.7400, -73.707
1343.7600, -73.588
1343.7800, -73.643
1343.8000, -73.856
1343.8200, -73.818
1343.8400, -73.595
1343.8600, -73.567
1343.8800, -73.730
1343.9000, -73.675
1343.9200, -73.714
1343.9400, -73.649
1343.9600, -73.603
1343.9800, -73.489
1344.0000, -73.576
1344.0200, -73.649
1344.0400, -73.527
1344.0600, -73.472
1344.0800, -73.540
1344.1000, -73.474
1344.1200, -73.512
1344.1400, -73.421
1344.1600, -73.396
1344.1800, -73.415
1344.2000, -73.503
1344.2200, -73.408
1344.2400, -73.463
1344.2600, -73.334
1344.2800, -73.363
1344.3000, -73.330
1344.3200, -73.358
1344.3400, -73.455
1344.3600, -73.379
1344.3800, -73.449
1344.4000, -73.350
1344.4200, -73.410
1344.4400, -73.353
1344.4600, -73.314
1344.4800, -73.513
1344.5000, -73.467
1344.5200, -73.394
1344.5400, -73.361
1344.5600, -73.430
1344.5800, -73.385
1344.6000, -73.276
1344.6200, -73.454
1344.6400, -73.448
1344.6600, -73.311
1344.6800, -73.357
1344.7000, -73.451
1344.7200, -73.209
1344.7400, -73.276
1344.7600, -73.266
1344.7800, -73.297
1344.8000, -73.182
1344.8200, -73.171
1344.8400, -72.920
1344.8600, -73.047
1344.8800, -72.999
1344.9000, -72.944
1344.9200, -72.874
1344.9400, -72.823
1344.9600, -72.770
1344.9800, -72.631
1345.0000, -72.638
1345.0200, -72.612
1345.0400, -72.524
1345.0600, -72.483
1345.0800, -72.407
1345.1000, -72.337
1345.1200, -72.196
1345.1400, -72.246
1345.1600, -72.340
1345.1800, -72.157
1345.2000, -72.073
1345.2200, -72.014
1345.2400, -71.998
1345.2600, -72.033
1345.2800, -71.847
1345.3000, -71.866
1345.3200, -71.856
1345.3400, -71.858
1345.3600, -71.846
1345.3800, -71.780
1345.4000, -71.725
1345.4200, -71.793
1345.4400, -71.617
1345.4600, -71.589
1345.4800, -71.485
1345.5000, -71.659
1345.5200, -71.523
1345.5400, -71.484
1345.5600, -71.544
1345.5800, -71.434
1345.6000, -71.483
1345.6200, -71.397
1345.6400, -71.398
1345.6600, -71.392
1345.6800, -71.352
1345.7000, -71.306
1345.7200, -71.268
1345.7400, -71.161
1345.7600, -71.252
1345.7800, -71.213
1345.8000, -71.091
1345.8200, -71.086
1345.8400, -71.138
1345.8600, -70.967
1345.8800, -70.887
1345.9000, -70.920
1345.9200, -70.889
1345.9400, -70.771
1345.9600, -70.843
1345.9800, -70.687
1346.0000, -70.629
1346.0200, -70.572
1346.0400, -70.593
1346.0600, -70.485
1346.0800, -70.515
1346.1000, -70.431
1346.1200, -70.340
1346.1400, -70.440
1346.1600, -70.227
1346.1800, -70.207
1346.2000, -70.169
1346.2200, -70.205
1346.2400, -70.141
1346.2600, -70.133
1346.2800, -70.160
1346.3000, -69.996
1346.3200, -70.016
1346.3400, -70.008
1346.3600, -69.989
1346.3800, -69.964
1346.4000, -69.971
1346.4200, -69.962
1346.4400, -70.073
1346.4600, -69.911
1346.4800, -69.879
1346.5000, -70.055
1346.5200, -69.811
1346.5400, -69.964
1346.5600, -69.953
1346.5800, -69.946
1346.6000, -69.874
1346.6200, -69.942
1346.6400, -69.869
1346.6600, -69.906
1346.6800, -69.836
1346.7000, -69.860
1346.7200, -69.809
1346.7400, -69.798
1346.7600, -69.680
1346.7800, -69.679
1346.8000, -69.631
1346.8200, -69.616
1346.8400, -69.674
1346.8600, -69.538
1346.8800, -69.547
1346.9000, -69.399
1346.9200, -69.378
1346.9400, -69.322
1346.9600, -69.277
1346.9800, -69.288
1347.0000, -69.211
1347.0200, -69.120
1347.0400, -69.080
1347.0600, -69.122
1347.0800, -69.135
1347.1000, -69.041
1347.1200, -69.152
1347.1400, -69.061
1347.1600, -68.944
1347.1800, -68.914
1347.2000, -68.928
1347.2200, -68.940
1347.2400, -68.919
1347.2600, -68.855
1347.2800, -68.905
1347.3000, -68.915
1347.3200, -68.963
1347.3400, -68.935
1347.3600, -68.909
1347.3800, -68.873
1347.4000, -68.892
1347.4200, -68.949
1347.4400, -68.886
1347.4600, -68.969
1347.4800, -68.954
1347.5000, -69.024
1347.5200, -68.989
1347.5400, -68.808
1347.5600, -68.980
1347.5800, -68.932
1347.6000, -68.980
1347.6200, -69.073
1347.6400, -69.049
1347.6600, -69.018
1347.6800, -68.943
1347.7000, -69.027
1347.7200, -69.035
1347.7400, -68.974
1347.7600, -69.041
1347.7800, -69.049
1347.8000, -69.024
1347.8200, -68.978
1347.8400, -68.905
1347.8600, -68.832
1347.8800, -68.898
1347.9000, -68.767
1347.9200, -68.794
1347.9400, -68.776
1347.9600, -68.724
1347.9800, -68.748
1348.0000, -68.636
1348.0200, -68.740
1348.0400, -68.729
1348.0600, -68.596
1348.0800, -68.534
1348.1000, -68.468
1348.1200, -68.548
1348.1400, -68.438
1348.1600, -68.548
1348.1800, -68.512
1348.2000, -68.420
1348.2200, -68.371
1348.2400, -68.407
1348.2600, -68.461
1348.2800, -68.424
1348.3000, -68.378
1348.3200, -68.464
1348.3400, -68.465
1348.3600, -68.378
1348.3800, -68.423
1348.4000, -68.429
1348.4200, -68.422
1348.4400, -68.534
1348.4600, -68.435
1348.4800, -68.447
1348.5000, -68.468
1348.5200, -68.491
1348.5400, -68.537
1348.5600, -68.552
1348.5800, -68.561
1348.6000, -68.630
1348.6200, -68.497
1348.6400, -68.530
1348.6600, -68.578
1348.6800, -68.472
1348.7000, -68.471
1348.7200, -68.595
1348.7400, -68.500
1348.7600, -68.405
1348.7800, -68.585
1348.8000, -68.410
1348.8200, -68.474
1348.8400, -68.372
1348.8600, -68.372
1348.8800, -68.379
1348.9000, -68.286
1348.9200, -68.342
1348.9400, -68.349
1348.9600, -68.296
1348.9800, -68.234
1349.0000, -68.224
1349.0200, -68.157
1349.0400, -68.237
1349.0600, -68.242
1349.0800, -68.228
1349.1000, -68.128
1349.1200, -68.194
1349.1400, -68.011
1349.1600, -68.095
1349.1800, -68.139
1349.2000, -68.040
1349.2200, -68.029
1349.2400, -68.093
1349.2600, -68.114
1349.2800, -68.093
1349.3000, -68.059
1349.3200, -68.055
1349.3400, -68.047
1349.3600, -68.144
1349.3800, -68.067
1349.4000, -68.137
1349.4200, -68.099
1349.4400, -68.132
1349.4600, -68.294
1349.4800, -68.031
1349.5000, -68.230
1349.5200, -68.241
1349.5400, -68.225
1349.5600, -68.183
1349.5800, -68.141
1349.6000, -68.166
1349.6200, -68.316
1349.6400, -68.343
1349.6600, -68.339
1349.6800, -68.218
1349.7000, -68.252
1349.7200, -68.194
1349.7400, -68.243
1349.7600, -68.097
1349.7800, -68.290
1349.8000, -68.265
1349.8200, -68.366
1349.8400, -68.289
1349.8600, -68.248
1349.8800, -68.287
1349.9000, -68.204
1349.9200, -68.181
1349.9400, -68.254
1349.9600, -68.219
1349.9800, -68.269
1350.0000, -68.229
1350.0200, -68.213
1350.0400, -68.191
1350.0600, -68.167
1350.0800, -68.074
1350.1000, -68.079
1350.1200, -68.115
1350.1400, -68.016
1350.1600, -68.152
1350.1800, -68.105
1350.2000, -68.005
1350.2200, -68.064
1350.2400, -68.140
1350.2600, -67.996
1350.2800, -68.105
1350.3000, -68.025
1350.3200, -68.167
1350.3400, -68.174
1350.3600, -68.223
1350.3800, -68.253
1350.4000, -68.299
1350.4200, -68.323
1350.4400, -68.337
1350.4600, -68.418
1350.4800, -68.317
1350.5000, -68.457
1350.5200, -68.341
1350.5400, -68.485
1350.5600, -68.408
1350.5800, -68.360
1350.6000, -68.399
1350.6200, -68.365
1350.6400, -68.331
1350.6600, -68.408
1350.6800, -68.412
1350.7000, -68.410
1350.7200, -68.294
1350.7400, -68.303
1350.7600, -68.428
1350.7800, -68.263
1350.8000, -68.351
1350.8200, -68.216
1350.8400, -68.349
1350.8600, -68.207
1350.8800, -68.297
1350.9000, -68.318
1350.9200, -68.245
1350.9400, -68.266
1350.9600, -68.260
1350.9800, -68.176
1351.0000, -68.084
1351.0200, -68.233
1351.0400, -68.238
1351.0600, -68.166
1351.0800, -68.192
1351.1000, -68.121
1351.1200, -68.047
1351.1400, -68.126
1351.1600, -68.105
1351.1800, -68.227
1351.2000, -68.165
1351.2200, -68.154
1351.2400, -68.137
1351.2600, -68.128
1351.2800, -68.179
1351.3000, -68.133
1351.3200, -68.105
1351.3400, -68.187
1351.3600, -68.105
1351.3800, -68.343
1351.4000, -68.361
1351.4200, -68.373
1351.4400, -68.302
1351.4600, -68.422
1351.4800, -68.348
1351.5000, -68.606
1351.5200, -68.607
1351.5400, -68.595
1351.5600, -68.616
1351.5800, -68.704
1351.6000, -68.658
1351.6200, -68.741
1351.6400, -68.849
1351.6600, -68.841
1351.6800, -68.871
1351.7000, -68.900
1351.7200, -68.898
1351.7400, -68.817
1351.7600, -68.792
1351.7800, -68.820
1351.8000, -68.915
1351.8200, -68.921
1351.8400, -68.979
1351.8600, -68.969
1351.8800, -69.075
1351.9000, -68.992
1351.9200, -68.996
1351.9400, -69.048
1351.9600, -68.947
1351.9800, -68.916
1352.0000, -68.951
1352.0200, -68.963
1352.0400, -68.907
1352.0600, -68.906
1352.0800, -68.933
1352.1000, -68.882
1352.1200, -68.840
1352.1400, -68.989
1352.1600, -68.852
1352.1800, -68.875
1352.2000, -68.845
1352.2200, -68.966
1352.2400, -68.915
1352.2600, -68.900
1352.2800, -68.870
1352.3000, -68.967
1352.3200, -68.978
1352.3400, -69.007
1352.3600, -68.967
1352.3800, -69.031
1352.4000, -69.112
1352.4200, -69.269
1352.4400, -69.270
1352.4600, -69.342
1352.4800, -69.427
1352.5000, -69.569
1352.5200, -69.538
1352.5400, -69.842
1352.5600, -69.756
1352.5800, -69.842
1352.6000, -69.790
1352.6200, -69.794
1352.6400, -69.697
1352.6600, -69.859
1352.6800, -69.869
1352.7000, -69.858
1352.7200, -69.930
1352.7400, -69.710
1352.7600, -69.957
1352.7800, -69.813
1352.8000, -69.930
1352.8200, -69.949
1352.8400, -69.948
1352.8600, -69.802
1352.8800, -69.824
1352.9000, -69.835
1352.9200, -69.983
1352.9400, -69.902
1352.9600, -69.804
1352.9800, -69.886
1353.0000, -70.022
1353.0200, -70.005
1353.0400, -70.049
1353.0600, -70.008
1353.0800, -70.109
1353.1000, -70.079
1353.1200, -70.159
1353.1400, -70.239
1353.1600, -70.206
1353.1800, -70.385
1353.2000, -70.302
1353.2200, -70.422
1353.2400, -70.567
1353.2600, -70.542
1353.2800, -70.498
1353.3000, -70.530
1353.3200, -70.617
1353.3400, -70.585
1353.3600, -70.480
1353.3800, -70.577
1353.4000, -70.631
1353.4200, -70.615
1353.4400, -70.581
1353.4600, -70.536
1353.4800, -70.541
1353.5000, -70.713
1353.5200, -70.689
1353.5400, -70.868
1353.5600, -70.804
1353.5800, -70.836
1353.6000, -70.912
1353.6200, -70.847
1353.6400, -70.931
1353.6600, -70.950
1353.6800, -71.051
1353.7000, -71.057
1353.7200, -71.153
1353.7400, -71.294
1353.7600, -71.263
1353.7800, -71.303
1353.8000, -71.484
1353.8200, -71.308
1353.8400, -71.394
1353.8600, -71.479
1353.8800, -71.367
1353.9000, -71.422
1353.9200, -71.405
1353.9400, -71.436
1353.9600, -71.439
1353.9800, -71.411
1354.0000, -71.420
1354.0200, -71.407
1354.0400, -71.404
1354.0600, -71.454
1354.0800, -71.519
1354.1000, -71.457
1354.1200, -71.471
1354.1400, -71.606
1354.1600, -71.612
1354.1800, -71.668
1354.2000, -71.593
1354.2200, -71.666
1354.2400, -71.784
1354.2600, -71.730
1354.2800, -71.821
1354.3000, -71.922
1354.3200, -71.846
1354.3400, -72.032
1354.3600, -72.113
1354.3800, -72.045
1354.4000, -72.133
1354.4200, -72.272
1354.4400, -72.359
1354.4600, -72.487
1354.4800, -72.395
1354.5000, -72.426
1354.5200, -72.410
1354.5400, -72.433
1354.5600, -72.554
1354.5800, -72.568
1354.6000, -72.624
1354.6200, -72.659
1354.6400, -72.682
1354.6600, -72.640
1354.6800, -72.799
1354.7000, -72.910
1354.7200, -73.004
1354.7400, -73.057
1354.7600, -73.073
1354.7800, -73.209
1354.8000, -73.309
1354.8200, -73.415
1354.8400, -73.492
1354.8600, -73.425
1354.8800, -73.403
1354.9000, -73.390
1354.9200, -73.436
1354.9400, -73.450
1354.9600, -73.466
1354.9800, -73.458
1355.0000, -73.526
1355.0200, -73.496
1355.0400, -73.480
1355.0600, -73.438
1355.0800, -73.438
1355.1000, -73.564
1355.1200, -73.638
1355.1400, -73.790
1355.1600, -73.631
1355.1800, -73.500
1355.2000, -73.640
1355.2200, -73.609
1355.2400, -73.643
1355.2600, -73.638
1355.2800, -73.624
1355.3000, -73.470
1355.3200, -73.561
1355.3400, -73.656
1355.3600, -73.644
1355.3800, -73.722
1355.4000, -73.672
1355.4200, -73.625
1355.4400, -73.748
1355.4600, -73.723
1355.4800, -73.927
1355.5000, -73.844
1355.5200, -73.826
1355.5400, -73.869
1355.5600, -73.861
1355.5800, -73.963
1355.6000, -73.947
1355.6200, -73.971
1355.6400, -73.975
1355.6600, -74.052
1355.6800, -73.972
1355.7000, -74.251
1355.7200, -74.113
1355.7400, -74.441
1355.7600, -74.395
1355.7800, -74.501
1355.8000, -74.666
1355.8200, -74.695
1355.8400, -74.907
1355.8600, -75.037
1355.8800, -75.237
1355.9000, -75.402
1355.9200, -75.460
1355.9400, -75.268
1355.9600, -75.402
1355.9800, -75.244
1356.0000, -75.235
1356.0200, -75.105
1356.0400, -75.124
1356.0600, -75.061
1356.0800, -74.955
1356.1000, -74.742
1356.1200, -74.643
1356.1400, -74.435
1356.1600, -74.534
1356.1800, -74.522
1356.2000, -74.491
1356.2200, -74.504
1356.2400, -74.541
1356.2600, -74.588
1356.2800, -74.519
1356.3000, -74.602
1356.3200, -74.628
1356.3400, -74.627
1356.3600, -74.630
1356.3800, -74.560
1356.4000, -74.661
1356.4200, -74.686
1356.4400, -74.702
1356.4600, -74.835
1356.4800, -74.777
1356.5000, -74.773
1356.5200, -74.823
1356.5400, -74.772
1356.5600, -74.791
1356.5800, -74.857
1356.6000, -74.940
1356.6200, -74.909
1356.6400, -74.886
1356.6600, -75.038
1356.6800, -74.917
1356.7000, -74.987
1356.7200, -74.851
1356.7400, -74.972
1356.7600, -75.004
1356.7800, -74.974
1356.8000, -75.078
1356.8200, -74.939
1356.8400, -74.946
1356.8600, -74.927
1356.8800, -74.913
1356.9000, -74.981
1356.9200, -74.979
1356.9400, -74.999
1356.9600, -74.835
1356.9800, -74.883
1357.0000, -74.832
1357.0200, -74.886
1357.0400, -74.894
1357.0600, -74.883
1357.0800, -74.863
1357.1000, -75.078
1357.1200, -75.126
1357.1400, -75.128
1357.1600, -75.219
1357.1800, -75.257
1357.2000, -75.449
1357.2200, -75.388
1357.2400, -75.363
1357.2600, -75.192
1357.2800, -75.167
1357.3000, -75.119
1357.3200, -74.972
1357.3400, -74.773
1357.3600, -74.781
1357.3800, -74.791
1357.4000, -74.613
1357.4200, -74.555
1357.4400, -74.435
1357.4600, -74.469
1357.4800, -74.395
1357.5000, -74.315
1357.5200, -74.244
1357.5400, -74.189
1357.5600, -74.309
1357.5800, -74.299
1357.6000, -74.225
1357.6200, -74.244
1357.6400, -74.337
1357.6600, -74.197
1357.6800, -74.161
1357.7000, -74.120
1357.7200, -74.172
1357.7400, -74.118
1357.7600, -74.133
1357.7800, -74.143
1357.8000, -74.069
1357.8200, -74.041
1357.8400, -74.009
1357.8600, -73.994
1357.8800, -73.975
1357.9000, -73.847
1357.9200, -73.771
1357.9400, -73.840
1357.9600, -73.698
1357.9800, -73.649
1358.0000, -73.586
1358.0200, -73.445
1358.0400, -73.226
1358.0600, -73.257
1358.0800, -73.257
1358.1000, -73.199
1358.1200, -73.112
1358.1400, -73.141
1358.1600, -72.934
1358.1800, -72.850
1358.2000, -72.844
1358.2200, -72.832
1358.2400, -72.722
1358.2600, -72.799
1358.2800, -72.758
1358.3000, -72.731
1358.3200, -72.733
1358.3400, -72.788
1358.3600, -72.717
1358.3800, -72.619
1358.4000, -72.713
1358.4200, -72.799
1358.4400, -72.719
1358.4600, -72.754
1358.4800, -72.907
1358.5000, -72.914
1358.5200, -72.748
1358.5400, -72.919
1358.5600, -72.782
1358.5800, -72.655
1358.6000, -72.601
1358.6200, -72.360
1358.6400, -72.444
1358.6600, -72.305
1358.6800, -72.196
1358.7000, -72.289
1358.7200, -72.006
1358.7400, -71.983
1358.7600, -71.920
1358.7800, -71.974
1358.8000, -71.837
1358.8200, -71.812
1358.8400, -71.820
1358.8600, -71.920
1358.8800, -71.889
1358.9000, -71.944
1358.9200, -71.858
1358.9400, -71.729
1358.9600, -71.705
1358.9800, -71.645
1359.0000, -71.541
1359.0200, -71.425
1359.0400, -71.472
1359.0600, -71.453
1359.0800, -71.287
1359.1000, -71.324
1359.1200, -71.273
1359.1400, -71.198
1359.1600, -71.103
1359.1800, -71.116
1359.2000, -71.087
1359.2200, -71.158
1359.2400, -70.941
1359.2600, -71.083
1359.2800, -71.084
1359.3000, -70.995
1359.3200, -71.040
1359.3400, -70.982
1359.3600, -71.043
1359.3800, -71.038
1359.4000, -70.994
1359.4200, -70.962
1359.4400, -71.099
1359.4600, -71.197
1359.4800, -71.214
1359.5000, -71.288
1359.5200, -71.105
1359.5400, -71.297
1359.5600, -71.381
1359.5800, -71.530
1359.6000, -71.490
1359.6200, -71.449
1359.6400, -71.475
1359.6600, -71.195
1359.6800, -71.138
1359.7000, -71.094
1359.7200, -71.241
1359.7400, -70.993
1359.7600, -70.902
1359.7800, -70.888
1359.8000, -70.712
1359.8200, -70.685
1359.8400, -70.448
1359.8600, -70.401
1359.8800, -70.395
1359.9000, -70.212
1359.9200, -70.204
1359.9400, -70.123
1359.9600, -70.087
1359.9800, -69.938
1360.0000, -70.014
1360.0200, -69.841
1360.0400, -69.676
1360.0600, -69.732
1360.0800, -69.636
1360.1000, -69.547
1360.1200, -69.524
1360.1400, -69.521
1360.1600, -69.408
1360.1800, -69.352
1360.2000, -69.505
1360.2200, -69.411
1360.2400, -69.365
1360.2600, -69.500
1360.2800, -69.365
1360.3000, -69.362
1360.3200, -69.460
1360.3400, -69.355
1360.3600, -69.431
1360.3800, -69.370
1360.4000, -69.372
1360.4200, -69.353
1360.4400, -69.365
1360.4600, -69.384
1360.4800, -69.295
1360.5000, -69.255
1360.5200, -69.264
1360.5400, -69.240
1360.5600, -69.226
1360.5800, -69.190
1360.6000, -69.245
1360.6200, -69.207
1360.6400, -69.224
1360.6600, -69.156
1360.6800, -69.177
1360.7000, -69.272
1360.7200, -69.243
1360.7400, -69.172
1360.7600, -69.225
1360.7800, -69.272
1360.8000, -69.354
1360.8200, -69.384
1360.8400, -69.551
1360.8600, -69.588
1360.8800, -69.775
1360.9000, -69.797
1360.9200, -69.891
1360.9400, -69.876
1360.9600, -69.799
1360.9800, -69.600
1361.0000, -69.622
1361.0200, -69.557
1361.0400, -69.640
1361.0600, -69.499
1361.0800, -69.357
1361.1000, -69.510
1361.1200, -69.288
1361.1400, -69.269
1361.1600, -69.250
1361.1800, -69.395
1361.2000, -69.397
1361.2200, -69.210
1361.2400, -69.179
1361.2600, -69.168
1361.2800, -69.052
1361.3000, -69.031
1361.3200, -69.003
1361.3400, -68.987
1361.3600, -68.837
1361.3800, -68.882
1361.4000, -68.698
1361.4200, -68.715
1361.4400, -68.667
1361.4600, -68.715
1361.4800, -68.649
1361.5000, -68.738
1361.5200, -68.661
1361.5400, -68.738
1361.5600, -68.632
1361.5800, -68.632
1361.6000, -68.728
1361.6200, -68.830
1361.6400, -68.889
1361.6600, -68.883
1361.6800, -68.952
1361.7000, -69.122
1361.7200, -69.276
1361.7400, -69.400
1361.7600, -69.486
1361.7800, -69.609
1361.8000, -69.530
1361.8200, -69.381
1361.8400, -69.242
1361.8600, -69.250
1361.8800, -69.111
1361.9000, -69.062
1361.9200, -68.963
1361.9400, -69.001
1361.9600, -68.646
1361.9800, -68.729
1362.0000, -68.475
1362.0200, -68.514
1362.0400, -68.545
1362.0600, -68.490
1362.0800, -68.533
1362.1000, -68.601
1362.1200, -68.619
1362.1400, -68.523
1362.1600, -68.570
1362.1800, -68.514
1362.2000, -68.437
1362.2200, -68.420
1362.2400, -68.340
1362.2600, -68.412
1362.2800, -68.430
1362.3000, -68.547
1362.3200, -68.454
1362.3400, -68.443
1362.3600, -68.540
1362.3800, -68.750
1362.4000, -69.071
1362.4200, -69.258
1362.4400, -69.476
1362.4600, -69.630
1362.4800, -69.779
1362.5000, -69.793
1362.5200, -69.782
1362.5400, -69.721
1362.5600, -69.637
1362.5800, -69.472
1362.6000, -69.187
1362.6200, -68.947
1362.6400, -68.777
1362.6600, -68.625
1362.6800, -68.530
1362.7000, -68.349
1362.7200, -68.141
1362.7400, -68.168
1362.7600, -68.121
1362.7800, -68.107
1362.8000, -68.163
1362.8200, -68.233
1362.8400, -68.206
1362.8600, -68.170
1362.8800, -68.130
1362.9000, -68.156
1362.9200, -68.149
1362.9400, -68.144
1362.9600, -68.067
1362.9800, -68.045
1363.0000, -68.119
1363.0200, -68.131
1363.0400, -68.043
1363.0600, -67.962
1363.0800, -68.035
1363.1000, -67.883
1363.1200, -67.877
1363.1400, -67.939
1363.1600, -67.928
1363.1800, -67.904
1363.2000, -67.995
1363.2200, -67.834
1363.2400, -67.829
1363.2600, -67.788
1363.2800, -67.920
1363.3000, -67.784
1363.3200, -67.887
1363.3400, -67.817
1363.3600, -67.846
1363.3800, -67.840
1363.4000, -67.845
1363.4200, -67.811
1363.4400, -67.888
1363.4600, -67.831
1363.4800, -67.856
1363.5000, -67.883
1363.5200, -67.868
1363.5400, -67.971
1363.5600, -67.817
1363.5800, -67.889
1363.6000, -67.988
1363.6200, -67.977
1363.6400, -67.989
1363.6600, -67.946
1363.6800, -67.867
1363.7000, -67.923
1363.7200, -67.978
1363.7400, -67.929
1363.7600, -67.985
1363.7800, -67.912
1363.8000, -67.969
1363.8200, -67.954
1363.8400, -67.998
1363.8600, -68.072
1363.8800, -67.982
1363.9000, -67.928
1363.9200, -67.990
1363.9400, -68.030
1363.9600, -67.991
1363.9800, -68.031
1364.0000, -68.134
1364.0200, -68.067
1364.0400, -68.073
1364.0600, -68.023
1364.0800, -68.156
1364.1000, -68.087
1364.1200, -68.252
1364.1400, -68.081
1364.1600, -68.249
1364.1800, -68.263
1364.2000, -68.292
1364.2200, -68.144
1364.2400, -68.337
1364.2600, -68.342
1364.2800, -68.534
1364.3000, -68.469
1364.3200, -68.547
1364.3400, -68.531
1364.3600, -68.289
1364.3800, -68.299
1364.4000, -68.303
1364.4200, -68.307
1364.4400, -68.375
1364.4600, -68.259
1364.4800, -68.299
1364.5000, -68.126
1364.5200, -68.124
1364.5400, -68.193
1364.5600, -68.345
1364.5800, -68.267
1364.6000, -68.433
1364.6200, -68.566
1364.6400, -68.708
1364.6600, -68.934
1364.6800, -69.082
1364.7000, -69.411
1364.7200, -69.723
1364.7400, -69.944
1364.7600, -70.063
1364.7800, -70.012
1364.8000, -69.967
1364.8200, -69.921
1364.8400, -69.828
1364.8600, -69.743
1364.8800, -69.517
1364.9000, -69.492
1364.9200, -69.331
1364.9400, -69.266
1364.9600, -69.102
1364.9800, -69.013
1365.0000, -68.937
1365.0200, -68.864
1365.0400, -68.819
1365.0600, -68.906
1365.0800, -68.935
1365.1000, -68.847
1365.1200, -68.716
1365.1400, -68.765
1365.1600, -68.790
1365.1800, -68.736
1365.2000, -68.746
1365.2200, -68.819
1365.2400, -68.766
1365.2600, -68.842
1365.2800, -68.845
1365.3000, -68.872
1365.3200, -68.847
1365.3400, -68.918
1365.3600, -68.967
1365.3800, -69.107
1365.4000, -69.057
1365.4200, -69.182
1365.4400, -69.239
1365.4600, -69.436
1365.4800, -69.525
1365.5000, -69.528
1365.5200, -69.488
1365.5400, -69.517
1365.5600, -69.550
1365.5800, -69.726
1365.6000, -69.563
1365.6200, -69.744
1365.6400, -69.777
1365.6600, -69.696
1365.6800, -69.669
1365.7000, -69.666
1365.7200, -69.568
1365.7400, -69.640
1365.7600, -69.536
1365.7800, -69.746
1365.8000, -69.610
1365.8200, -69.483
1365.8400, -69.602
1365.8600, -69.633
1365.8800, -69.429
1365.9000, -69.495
1365.9200, -69.547
1365.9400, -69.639
1365.9600, -69.519
1365.9800, -69.595
1366.0000, -69.596
1366.0200, -69.526
1366.0400, -69.647
1366.0600, -69.613
1366.0800, -69.615
1366.1000, -69.720
1366.1200, -69.594
1366.1400, -69.726
1366.1600, -69.738
1366.1800, -69.756
1366.2000, -69.576
1366.2200, -69.784
1366.2400, -69.867
1366.2600, -69.784
1366.2800, -69.801
1366.3000, -69.860
1366.3200, -69.928
1366.3400, -69.824
1366.3600, -69.943
1366.3800, -69.935
1366.4000, -69.923
1366.4200, -69.977
1366.4400, -69.948
1366.4600, -70.119
1366.4800, -69.937
1366.5000, -70.051
1366.5200, -69.978
1366.5400, -70.056
1366.5600, -70.071
1366.5800, -70.140
1366.6000, -70.197
1366.6200, -70.187
1366.6400, -70.247
1366.6600, -70.323
1366.6800, -70.313
1366.7000, -70.263
1366.7200, -70.299
1366.7400, -70.354
1366.7600, -70.375
1366.7800, -70.495
1366.8000, -70.533
1366.8200, -70.530
1366.8400, -70.601
1366.8600, -70.657
1366.8800, -70.699
1366.9000, -70.803
1366.9200, -70.929
1366.9400, -70.876
1366.9600, -70.997
1366.9800, -71.135
1367.0000, -71.186
1367.0200, -71.229
1367.0400, -71.141
1367.0600, -71.059
1367.0800, -71.125
1367.1000, -71.073
1367.1200, -71.140
1367.1400, -71.118
1367.1600, -70.986
1367.1800, -71.056
1367.2000, -71.039
1367.2200, -71.037
1367.2400, -70.972
1367.2600, -71.046
1367.2800, -71.046
1367.3000, -70.967
1367.3200, -71.115
1367.3400, -70.961
1367.3600, -71.060
1367.3800, -71.141
1367.4000, -71.194
1367.4200, -71.218
1367.4400, -71.222
1367.4600, -71.122
1367.4800, -71.252
1367.5000, -71.356
1367.5200, -71.360
1367.5400, -71.427
1367.5600, -71.580
1367.5800, -71.655
1367.6000, -71.747
1367.6200, -71.828
1367.6400, -71.991
1367.6600, -71.972
1367.6800, -72.069
1367.7000, -72.183
1367.7200, -72.098
1367.7400, -72.076
1367.7600, -72.039
1367.7800, -72.103
1367.8000, -72.127
1367.8200, -72.235
1367.8400, -72.247
1367.8600, -72.323
1367.8800, -72.330
1367.9000, -72.613
1367.9200, -72.530
1367.9400, -72.722
1367.9600, -72.773
1367.9800, -72.727
1368.0000, -72.722
1368.0200, -72.543
1368.0400, -72.542
1368.0600, -72.625
1368.0800, -72.565
1368.1000, -72.465
1368.1200, -72.516
1368.1400, -72.314
1368.1600, -72.327
1368.1800, -72.221
1368.2000, -72.100
1368.2200, -72.298
1368.2400, -72.319
1368.2600, -72.448
1368.2800, -72.335
1368.3000, -72.367
1368.3200, -72.415
1368.3400, -72.353
1368.3600, -72.513
1368.3800, -72.555
1368.4000, -72.468
1368.4200, -72.504
1368.4400, -72.410
1368.4600, -72.581
1368.4800, -72.542
1368.5000, -72.651
1368.5200, -72.765
1368.5400, -72.831
1368.5600, -73.003
1368.5800, -73.168
1368.6000, -73.374
1368.6200, -73.503
1368.6400, -73.817
1368.6600, -73.974
1368.6800, -74.073
1368.7000, -74.125
1368.7200, -74.170
1368.7400, -73.940
1368.7600, -73.962
1368.7800, -73.755
1368.8000, -73.797
1368.8200, -73.809
1368.8400, -73.671
1368.8600, -73.476
1368.8800, -73.355
1368.9000, -73.420
1368.9200, -73.292
1368.9400, -73.289
1368.9600, -73.432
1368.9800, -73.280
1369.0000, -73.333
1369.0200, -73.317
1369.0400, -73.374
1369.0600, -73.464
1369.0800, -73.385
1369.1000, -73.439
1369.1200, -73.427
1369.1400, -73.330
1369.1600, -73.297
1369.1800, -73.325
1369.2000, -73.440
1369.2200, -73.437
1369.2400, -73.488
1369.2600, -73.412
1369.2800, -73.409
1369.3000, -73.432
1369.3200, -73.382
1369.3400, -73.381
1369.3600, -73.482
1369.3800, -73.410
1369.4000, -73.335
1369.4200, -73.453
1369.4400, -73.512
1369.4600, -73.417
1369.4800, -73.422
1369.5000, -73.393
1369.5200, -73.429
1369.5400, -73.391
1369.5600, -73.406
1369.5800, -73.371
1369.6000, -73.454
1369.6200, -73.335
1369.6400, -73.432
1369.6600, -73.448
1369.6800, -73.478
1369.7000, -73.438
1369.7200, -73.469
1369.7400, -73.542
1369.7600, -73.416
1369.7800, -73.488
1369.8000, -73.496
1369.8200, -73.477
1369.8400, -73.515
1369.8600, -73.568
1369.8800, -73.560
1369.9000, -73.582
1369.9200, -73.717
1369.9400, -73.779
1369.9600, -73.922
1369.9800, -73.890
1370.0000, -74.077
1370.0200, -74.178
1370.0400, -74.273
1370.0600, -74.478
1370.0800, -74.377
1370.1000, -74.195
1370.1200, -74.103
1370.1400, -73.985
1370.1600, -73.858
1370.1800, -73.946
1370.2000, -73.832
1370.2200, -73.650
1370.2400, -73.483
1370.2600, -73.429
1370.2800, -73.344
1370.3000, -73.222
1370.3200, -73.135
1370.3400, -73.208
1370.3600, -73.145
1370.3800, -72.950
1370.4000, -73.036
1370.4200, -73.069
1370.4400, -73.013
1370.4600, -72.912
1370.4800, -72.831
1370.5000, -72.877
1370.5200, -72.830
1370.5400, -72.725
1370.5600, -72.790
1370.5800, -72.647
1370.6000, -72.551
1370.6200, -72.566
1370.6400, -72.570
1370.6600, -72.515
1370.6800, -72.550
1370.7000, -72.492
1370.7200, -72.547
1370.7400, -72.473
1370.7600, -72.466
1370.7800, -72.405
1370.8000, -72.472
1370.8200, -72.428
1370.8400, -72.511
1370.8600, -72.482
1370.8800, -72.472
1370.9000, -72.417
1370.9200, -72.485
1370.9400, -72.698
1370.9600, -72.886
1370.9800, -72.948
1371.0000, -73.140
1371.0200, -73.180
1371.0400, -73.371
1371.0600, -73.388
1371.0800, -73.291
1371.1000, -73.092
1371.1200, -73.002
1371.1400, -72.844
1371.1600, -72.612
1371.1800, -72.474
1371.2000, -72.378
1371.2200, -72.160
1371.2400, -72.054
1371.2600, -71.967
1371.2800, -71.750
1371.3000, -71.795
1371.3200, -71.648
1371.3400, -71.683
1371.3600, -71.643
1371.3800, -71.564
1371.4000, -71.472
1371.4200, -71.408
1371.4400, -71.464
1371.4600, -71.416
1371.4800, -71.353
1371.5000, -71.264
1371.5200, -71.174
1371.5400, -71.235
1371.5600, -71.059
1371.5800, -70.953
1371.6000, -70.972
1371.6200, -70.841
1371.6400, -70.898
1371.6600, -70.924
1371.6800, -70.774
1371.7000, -70.838
1371.7200, -70.826
1371.7400, -70.773
1371.7600, -70.787
1371.7800, -70.789
1371.8000, -70.707
1371.8200, -70.744
1371.8400, -70.754
1371.8600, -70.695
1371.8800, -70.644
1371.9000, -70.548
1371.9200, -70.544
1371.9400, -70.412
1371.9600, -70.488
1371.9800, -70.495
1372.0000, -70.469
1372.0200, -70.418
1372.0400, -70.330
1372.0600, -70.312
1372.0800, -70.514
1372.1000, -70.346
1372.1200, -70.420
1372.1400, -70.437
1372.1600, -70.528
1372.1800, -70.525
1372.2000, -70.545
1372.2200, -70.516
1372.2400, -70.509
1372.2600, -70.388
1372.2800, -70.312
1372.3000, -70.372
1372.3200, -70.375
1372.3400, -70.250
1372.3600, -70.136
1372.3800, -70.252
1372.4000, -70.048
1372.4200, -70.068
1372.4400, -69.988
1372.4600, -69.856
1372.4800, -69.777
1372.5000, -69.713
1372.5200, -69.731
1372.5400, -69.616
1372.5600, -69.475
1372.5800, -69.531
1372.6000, -69.380
1372.6200, -69.462
1372.6400, -69.403
1372.6600, -69.237
1372.6800, -69.272
1372.7000, -69.340
1372.7200, -68.995
1372.7400, -69.069
1372.7600, -69.175
1372.7800, -69.057
1372.8000, -69.084
1372.8200, -69.077
1372.8400, -69.035
1372.8600, -69.017
1372.8800, -68.971
1372.9000, -69.039
1372.9200, -69.013
1372.9400, -68.891
1372.9600, -68.952
1372.9800, -68.880
1373.0000, -69.004
1373.0200, -69.029
1373.0400, -68.991
1373.0600, -68.915
1373.0800, -68.930
1373.1000, -68.859
1373.1200, -68.901
1373.1400, -68.877
1373.1600, -68.786
1373.1800, -68.837
1373.2000, -68.822
1373.2200, -68.717
1373.2400, -68.785
1373.2600, -68.618
1373.2800, -68.696
1373.3000, -68.545
1373.3200, -68.631
1373.3400, -68.589
1373.3600, -68.582
1373.3800, -68.594
1373.4000, -68.513
1373.4200, -68.546
1373.4400, -68.487
1373.4600, -68.586
1373.4800, -68.484
1373.5000, -68.565
1373.5200, -68.570
1373.5400, -68.474
1373.5600, -68.440
1373.5800, -68.449
1373.6000, -68.342
1373.6200, -68.307
1373.6400, -68.323
1373.6600, -68.170
1373.6800, -68.145
1373.7000, -68.156
1373.7200, -68.038
1373.7400, -68.070
1373.7600, -68.073
1373.7800, -68.121
1373.8000, -67.983
1373.8200, -68.019
1373.8400, -68.042
1373.8600, -67.883
1373.8800, -67.907
1373.9000, -67.990
1373.9200, -67.893
1373.9400, -68.000
1373.9600, -67.872
1373.9800, -67.880
1374.0000, -68.008
1374.0200, -67.969
1374.0400, -67.840
1374.0600, -68.004
1374.0800, -67.777
1374.1000, -67.914
1374.1200, -68.031
1374.1400, -67.935
1374.1600, -67.972
1374.1800, -67.794
1374.2000, -67.801
1374.2200, -67.861
1374.2400, -67.807
1374.2600, -67.827
1374.2800, -67.659
1374.3000, -67.770
1374.3200, -67.716
1374.3400, -67.773
1374.3600, -67.656
1374.3800, -67.727
1374.4000, -67.725
1374.4200, -67.626
1374.4400, -67.601
1374.4600, -67.731
1374.4800, -67.706
1374.5000, -67.588
1374.5200, -67.682
1374.5400, -67.535
1374.5600, -67.486
1374.5800, -67.572
1374.6000, -67.443
1374.6200, -67.403
1374.6400, -67.437
1374.6600, -67.325
1374.6800, -67.377
1374.7000, -67.186
1374.7200, -67.214
1374.7400, -67.291
1374.7600, -67.253
1374.7800, -67.255
1374.8000, -67.272
1374.8200, -67.227
1374.8400, -67.125
1374.8600, -67.229
1374.8800, -67.229
1374.9000, -67.262
1374.9200, -67.223
1374.9400, -67.322
1374.9600, -67.445
1374.9800, -67.532
1375.0000, -67.493
1375.0200, -67.542
1375.0400, -67.593
1375.0600, -67.573
1375.0800, -67.699
1375.1000, -67.615
1375.1200, -67.590
1375.1400, -67.539
1375.1600, -67.681
1375.1800, -67.383
1375.2000, -67.440
1375.2200, -67.413
1375.2400, -67.334
1375.2600, -67.260
1375.2800, -67.245
1375.3000, -67.311
1375.3200, -67.161
1375.3400, -67.133
1375.3600, -67.207
1375.3800, -67.179
1375.4000, -67.014
1375.4200, -67.018
1375.4400, -67.096
1375.4600, -67.005
1375.4800, -67.033
1375.5000, -66.988
1375.5200, -66.914
1375.5400, -66.834
1375.5600, -66.902
1375.5800, -67.066
1375.6000, -66.916
1375.6200, -66.953
1375.6400, -66.775
1375.6600, -66.888
1375.6800, -66.888
1375.7000, -66.909
1375.7200, -66.874
1375.7400, -66.832
1375.7600, -66.877
1375.7800, -66.838
1375.8000, -66.960
1375.8200, -66.788
1375.8400, -66.861
1375.8600, -66.954
1375.8800, -66.971
1375.9000, -67.136
1375.9200, -67.177
1375.9400, -67.130
1375.9600, -67.325
1375.9800, -67.354
1376.0000, -67.412
1376.0200, -67.367
1376.0400, -67.438
1376.0600, -67.406
1376.0800, -67.406
1376.1000, -67.339
1376.1200, -67.380
1376.1400, -67.351
1376.1600, -67.321
1376.1800, -67.279
1376.2000, -67.327
1376.2200, -67.299
1376.2400, -67.393
1376.2600, -67.289
1376.2800, -67.234
1376.3000, -67.290
1376.3200, -67.358
1376.3400, -67.245
1376.3600, -67.338
1376.3800, -67.360
1376.4000, -67.272
1376.4200, -67.237
1376.4400, -67.192
1376.4600, -67.290
1376.4800, -67.194
1376.5000, -67.263
1376.5200, -67.198
1376.5400, -67.194
1376.5600, -67.172
1376.5800, -67.039
1376.6000, -67.206
1376.6200, -67.133
1376.6400, -67.147
1376.6600, -67.151
1376.6800, -67.172
1376.7000, -67.209
1376.7200, -67.162
1376.7400, -67.250
1376.7600, -67.130
1376.7800, -67.127
1376.8000, -67.256
1376.8200, -67.170
1376.8400, -67.201
1376.8600, -67.231
1376.8800, -67.379
1376.9000, -67.254
1376.9200, -67.471
1376.9400, -67.424
1376.9600, -67.498
1376.9800, -67.537
1377.0000, -67.703
1377.0200, -67.966
1377.0400, -67.919
1377.0600, -68.172
1377.0800, -68.177
1377.1000, -68.020
1377.1200, -68.030
1377.1400, -67.949
1377.1600, -68.012
1377.1800, -67.977
1377.2000, -67.939
1377.2200, -67.861
1377.2400, -67.768
1377.2600, -67.830
1377.2800, -67.820
1377.3000, -67.794
1377.3200, -67.868
1377.3400, -67.862
1377.3600, -67.806
1377.3800, -67.733
1377.4000, -67.798
1377.4200, -67.811
1377.4400, -67.823
1377.4600, -67.845
1377.4800, -67.637
1377.5000, -67.786
1377.5200, -67.687
1377.5400, -67.677
1377.5600, -67.757
1377.5800, -67.817
1377.6000, -67.705
1377.6200, -67.681
1377.6400, -67.679
1377.6600, -67.715
1377.6800, -67.676
1377.7000, -67.881
1377.7200, -67.807
1377.7400, -67.810
1377.7600, -67.710
1377.7800, -67.818
1377.8000, -67.705
1377.8200, -67.784
1377.8400, -67.873
1377.8600, -67.878
1377.8800, -67.889
1377.9000, -67.890
1377.9200, -67.836
1377.9400, -67.847
1377.9600, -67.922
1377.9800, -67.865
1378.0000, -67.932
1378.0200, -67.919
1378.0400, -67.995
1378.0600, -67.960
1378.0800, -68.087
1378.1000, -68.150
1378.1200, -68.074
1378.1400, -68.149
1378.1600, -68.214
1378.1800, -68.219
1378.2000, -68.294
1378.2200, -68.234
1378.2400, -68.256
1378.2600, -68.304
1378.2800, -68.269
1378.3000, -68.226
1378.3200, -68.255
1378.3400, -68.261
1378.3600, -68.346
1378.3800, -68.340
1378.4000, -68.367
1378.4200, -68.480
1378.4400, -68.406
1378.4600, -68.380
1378.4800, -68.487
1378.5000, -68.584
1378.5200, -68.535
1378.5400, -68.600
1378.5600, -68.669
1378.5800, -68.768
1378.6000, -68.772
1378.6200, -68.909
1378.6400, -68.915
1378.6600, -69.064
1378.6800, -68.979
1378.7000, -68.987
1378.7200, -68.986
1378.7400, -69.169
1378.7600, -69.161
1378.7800, -69.096
1378.8000, -69.128
1378.8200, -69.258
1378.8400, -69.268
1378.8600, -69.274
1378.8800, -69.265
1378.9000, -69.228
1378.9200, -69.307
1378.9400, -69.182
1378.9600, -69.215
1378.9800, -69.286
1379.0000, -69.297
1379.0200, -69.180
1379.0400, -69.144
1379.0600, -69.107
1379.0800, -69.146
1379.1000, -69.091
1379.1200, -69.089
1379.1400, -69.155
1379.1600, -69.135
1379.1800, -69.155
1379.2000, -69.185
1379.2200, -69.232
1379.2400, -69.262
1379.2600, -69.281
1379.2800, -69.228
1379.3000, -69.210
1379.3200, -69.359
1379.3400, -69.328
1379.3600, -69.304
1379.3800, -69.375
1379.4000, -69.431
1379.4200, -69.321
1379.4400, -69.427
1379.4600, -69.516
1379.4800, -69.487
1379.5000, -69.529
1379.5200, -69.496
1379.5400, -69.438
1379.5600, -69.401
1379.5800, -69.550
1379.6000, -69.490
1379.6200, -69.502
1379.6400, -69.512
1379.6600, -69.579
1379.6800, -69.513
1379.7000, -69.633
1379.7200, -69.594
1379.7400, -69.674
1379.7600, -69.538
1379.7800, -69.646
1379.8000, -69.672
1379.8200, -69.643
1379.8400, -69.752
1379.8600, -69.856
1379.8800, -69.814
1379.9000, -69.751
1379.9200, -69.735
1379.9400, -69.890
1379.9600, -69.798
1379.9800, -69.894
1380.0000, -69.857
1380.0200, -70.025
1380.0400, -69.940
1380.0600, -70.042
1380.0800, -70.020
1380.1000, -70.024
1380.1200, -70.095
1380.1400, -70.255
1380.1600, -70.315
1380.1800, -70.298
1380.2000, -70.559
1380.2200, -70.532
1380.2400, -70.567
1380.2600, -70.597
1380.2800, -70.695
1380.3000, -70.640
1380.3200, -70.571
1380.3400, -70.758
1380.3600, -70.705
1380.3800, -70.719
1380.4000, -70.670
1380.4200, -70.658
1380.4400, -70.796
1380.4600, -70.817
1380.4800, -70.708
1380.5000, -70.870
1380.5200, -70.869
1380.5400, -71.004
1380.5600, -71.301
1380.5800, -71.422
1380.6000, -71.572
1380.6200, -71.696
1380.6400, -71.663
1380.6600, -71.919
1380.6800, -72.015
1380.7000, -72.186
1380.7200, -72.184
1380.7400, -71.957
1380.7600, -71.906
1380.7800, -71.726
1380.8000, -71.872
1380.8200, -71.884
1380.8400, -71.899
1380.8600, -71.950
1380.8800, -71.852
1380.9000, -71.565
1380.9200, -71.117
1380.9400, -71.156
1380.9600, -71.267
1380.9800, -71.315
1381.0000, -71.459
1381.0200, -71.577
1381.0400, -71.601
1381.0600, -71.580
1381.0800, -71.639
1381.1000, -71.624
1381.1200, -71.832
1381.1400, -71.905
1381.1600, -71.966
1381.1800, -71.948
1381.2000, -72.005
1381.2200, -71.945
1381.2400, -71.823
1381.2600, -71.785
1381.2800, -71.582
1381.3000, -71.456
1381.3200, -71.472
1381.3400, -71.500
1381.3600, -71.314
1381.3800, -71.289
1381.4000, -71.206
1381.4200, -71.076
1381.4400, -71.133
1381.4600, -71.089
1381.4800, -71.054
1381.5000, -71.184
1381.5200, -71.128
1381.5400, -71.213
1381.5600, -71.183
1381.5800, -71.083
1381.6000, -71.157
1381.6200, -71.183
1381.6400, -71.345
1381.6600, -71.247
1381.6800, -71.279
1381.7000, -71.185
1381.7200, -71.296
1381.7400, -71.267
1381.7600, -71.379
1381.7800, -71.294
1381.8000, -71.446
1381.8200, -71.549
1381.8400, -71.439
1381.8600, -71.497
1381.8800, -71.487
1381.9000, -71.657
1381.9200, -71.571
1381.9400, -71.641
1381.9600, -71.593
1381.9800, -71.661
1382.0000, -71.709
1382.0200, -71.639
1382.0400, -71.701
1382.0600, -71.755
1382.0800, -71.656
1382.1000, -71.663
1382.1200, -71.804
1382.1400, -71.702
1382.1600, -71.686
1382.1800, -71.755
1382.2000, -71.778
1382.2200, -71.888
1382.2400, -71.800
1382.2600, -71.917
1382.2800, -71.867
1382.3000, -71.997
1382.3200, -71.937
1382.3400, -71.873
1382.3600, -71.989
1382.3800, -71.974
1382.4000, -72.001
1382.4200, -72.047
1382.4400, -72.208
1382.4600, -72.123
1382.4800, -72.278
1382.5000, -72.344
1382.5200, -72.400
1382.5400, -72.597
1382.5600, -72.699
1382.5800, -72.719
1382.6000, -72.688
1382.6200, -72.726
1382.6400, -72.727
1382.6600, -72.969
1382.6800, -72.940
1382.7000, -73.144
1382.7200, -73.195
1382.7400, -73.197
1382.7600, -73.355
1382.7800, -73.339
1382.8000, -73.400
1382.8200, -73.399
1382.8400, -73.335
1382.8600, -73.146
1382.8800, -72.978
1382.9000, -72.735
1382.9200, -72.530
1382.9400, -72.519
1382.9600, -72.474
1382.9800, -72.367
1383.0000, -72.256
1383.0200, -72.194
1383.0400, -72.089
1383.0600, -71.989
1383.0800, -71.858
1383.1000, -71.853
1383.1200, -71.731
1383.1400, -71.696
1383.1600, -71.691
1383.1800, -71.612
1383.2000, -71.448
1383.2200, -71.442
1383.2400, -71.209
1383.2600, -71.185
1383.2800, -71.166
1383.3000, -71.057
1383.3200, -70.965
1383.3400, -70.828
1383.3600, -70.903
1383.3800, -70.798
1383.4000, -70.799
1383.4200, -70.767
1383.4400, -70.727
1383.4600, -70.663
1383.4800, -70.771
1383.5000, -70.709
1383.5200, -70.651
1383.5400, -70.730
1383.5600, -70.847
1383.5800, -70.799
1383.6000, -70.673
1383.6200, -70.701
1383.6400, -70.678
1383.6600, -70.699
1383.6800, -70.703
1383.7000, -70.480
1383.7200, -70.460
1383.7400, -70.458
1383.7600, -70.387
1383.7800, -70.283
1383.8000, -70.311
1383.8200, -70.366
1383.8400, -70.320
1383.8600, -70.394
1383.8800, -70.411
1383.9000, -70.411
1383.9200, -70.380
1383.9400, -70.532
1383.9600, -70.560
1383.9800, -70.685
1384.0000, -70.491
1384.0200, -70.412
1384.0400, -70.163
1384.0600, -70.159
1384.0800, -69.999
1384.1000, -69.952
1384.1200, -69.898
1384.1400, -69.683
1384.1600, -69.529
1384.1800, -69.521
1384.2000, -69.400
1384.2200, -69.310
1384.2400, -69.281
1384.2600, -69.235
1384.2800, -69.302
1384.3000, -69.313
1384.3200, -69.252
1384.3400, -69.022
1384.3600, -69.020
1384.3800, -69.242
1384.4000, -69.278
1384.4200, -69.399
1384.4400, -69.299
1384.4600, -69.432
1384.4800, -69.700
1384.5000, -70.021
1384.5200, -70.175
1384.5400, -70.126
1384.5600, -70.149
1384.5800, -70.136
1384.6000, -70.026
1384.6200, -69.777
1384.6400, -69.409
1384.6600, -69.077
1384.6800, -69.090
1384.7000, -69.113
1384.7200, -68.771
1384.7400, -68.845
1384.7600, -69.015
1384.7800, -69.150
1384.8000, -69.585
1384.8200, -69.643
1384.8400, -69.922
1384.8600, -69.907
1384.8800, -69.925
1384.9000, -70.045
1384.9200, -69.972
1384.9400, -69.993
1384.9600, -70.092
1384.9800, -70.041
1385.0000, -70.066
1385.0200, -69.895
1385.0400, -69.902
1385.0600, -69.836
1385.0800, -69.953
1385.1000, -70.078
1385.1200, -70.011
1385.1400, -69.988
1385.1600, -70.031
1385.1800, -70.109
1385.2000, -70.097
1385.2200, -70.108
1385.2400, -70.078
1385.2600, -69.935
1385.2800, -69.826
1385.3000, -69.831
1385.3200, -69.674
1385.3400, -69.617
1385.3600, -69.530
1385.3800, -69.483
1385.4000, -69.459
1385.4200, -69.408
1385.4400, -69.467
1385.4600, -69.374
1385.4800, -69.304
1385.5000, -69.372
1385.5200, -69.257
1385.5400, -69.194
1385.5600, -69.228
1385.5800, -69.119
1385.6000, -69.170
1385.6200, -69.093
1385.6400, -69.118
1385.6600, -68.998
1385.6800, -68.969
1385.7000, -69.022
1385.7200, -69.077
1385.7400, -68.999
1385.7600, -68.974
1385.7800, -68.952
1385.8000, -68.936
1385.8200, -69.033
1385.8400, -68.987
1385.8600, -68.967
1385.8800, -68.963
1385.9000, -68.955
1385.9200, -69.019
1385.9400, -69.045
1385.9600, -69.092
1385.9800, -69.028
1386.0000, -69.090
1386.0200, -69.095
1386.0400, -68.868
1386.0600, -68.824
1386.0800, -68.724
1386.1000, -68.698
1386.1200, -68.747
1386.1400, -68.677
1386.1600, -68.703
1386.1800, -68.593
1386.2000, -68.621
1386.2200, -68.411
1386.2400, -68.346
1386.2600, -68.434
1386.2800, -68.427
1386.3000, -68.379
1386.3200, -68.453
1386.3400, -68.322
1386.3600, -68.400
1386.3800, -68.354
1386.4000, -68.415
1386.4200, -68.362
1386.4400, -68.419
1386.4600, -68.578
1386.4800, -68.542
1386.5000, -68.480
1386.5200, -68.507
1386.5400, -68.578
1386.5600, -68.413
1386.5800, -68.388
1386.6000, -68.245
1386.6200, -68.195
1386.6400, -68.405
1386.6600, -68.295
1386.6800, -68.161
1386.7000, -68.092
1386.7200, -68.200
1386.7400, -68.054
1386.7600, -68.048
1386.7800, -68.114
1386.8000, -68.105
1386.8200, -67.971
1386.8400, -68.022
1386.8600, -67.945
1386.8800, -67.898
1386.9000, -67.829
1386.9200, -67.906
1386.9400, -67.838
1386.9600, -67.874
1386.9800, -67.866
1387.0000, -67.890
1387.0200, -67.779
1387.0400, -67.831
1387.0600, -67.813
1387.0800, -67.753
1387.1000, -67.777
1387.1200, -67.720
1387.1400, -67.810
1387.1600, -67.705
1387.1800, -67.730
1387.2000, -67.685
1387.2200, -67.642
1387.2400, -67.542
1387.2600, -67.598
1387.2800, -67.582
1387.3000, -67.576
1387.3200, -67.565
1387.3400, -67.529
1387.3600, -67.458
1387.3800, -67.464
1387.4000, -67.391
1387.4200, -67.523
1387.4400, -67.474
1387.4600, -67.451
1387.4800, -67.430
1387.5000, -67.366
1387.5200, -67.390
1387.5400, -67.457
1387.5600, -67.461
1387.5800, -67.400
1387.6000, -67.347
1387.6200, -67.329
1387.6400, -67.274
1387.6600, -67.307
1387.6800, -67.365
1387.7000, -67.428
1387.7200, -67.316
1387.7400, -67.316
1387.7600, -67.279
1387.7800, -67.298
1387.8000, -67.423
1387.8200, -67.469
1387.8400, -67.600
1387.8600, -67.549
1387.8800, -67.689
1387.9000, -67.877
1387.9200, -68.070
1387.9400, -68.157
1387.9600, -68.135
1387.9800, -67.994
1388.0000, -67.913
1388.0200, -67.728
1388.0400, -67.778
1388.0600, -67.681
1388.0800, -67.609
1388.1000, -67.635
1388.1200, -67.573
1388.1400, -67.447
1388.1600, -67.430
1388.1800, -67.448
1388.2000, -67.430
1388.2200, -67.365
1388.2400, -67.454
1388.2600, -67.402
1388.2800, -67.424
1388.3000, -67.397
1388.3200, -67.298
1388.3400, -67.374
1388.3600, -67.445
1388.3800, -67.552
1388.4000, -67.579
1388.4200, -67.448
1388.4400, -67.392
1388.4600, -67.449
1388.4800, -67.403
1388.5000, -67.274
1388.5200, -67.225
1388.5400, -67.253
1388.5600, -67.103
1388.5800, -67.103
1388.6000, -66.994
1388.6200, -66.985
1388.6400, -66.856
1388.6600, -66.820
1388.6800, -66.920
1388.7000, -66.877
1388.7200, -66.867
1388.7400, -66.927
1388.7600, -66.802
1388.7800, -66.873
1388.8000, -66.841
1388.8200, -66.882
1388.8400, -66.985
1388.8600, -66.841
1388.8800, -66.909
1388.9000, -66.797
1388.9200, -66.830
1388.9400, -66.847
1388.9600, -66.835
1388.9800, -66.928
1389.0000, -66.802
1389.0200, -66.896
1389.0400, -66.915
1389.0600, -67.072
1389.0800, -66.935
1389.1000, -66.995
1389.1200, -67.026
1389.1400, -66.948
1389.1600, -66.952
1389.1800, -66.917
1389.2000, -67.044
1389.2200, -67.008
1389.2400, -66.980
1389.2600, -66.839
1389.2800, -66.858
1389.3000, -66.924
1389.3200, -67.000
1389.3400, -66.861
1389.3600, -66.925
1389.3800, -66.882
1389.4000, -67.019
1389.4200, -67.002
1389.4400, -66.962
1389.4600, -66.820
1389.4800, -66.930
1389.5000, -66.938
1389.5200, -66.999
1389.5400, -66.908
1389.5600, -66.905
1389.5800, -66.900
1389.6000, -67.039
1389.6200, -66.953
1389.6400, -67.025
1389.6600, -67.039
1389.6800, -67.054
1389.7000, -67.142
1389.7200, -67.169
1389.7400, -67.069
1389.7600, -67.187
1389.7800, -67.167
1389.8000, -67.213
1389.8200, -67.266
1389.8400, -67.286
1389.8600, -67.365
1389.8800, -67.424
1389.9000, -67.362
1389.9200, -67.496
1389.9400, -67.531
1389.9600, -67.716
1389.9800, -67.743
1390.0000, -67.771
1390.0200, -67.687
1390.0400, -67.699
1390.0600, -67.618
1390.0800, -67.731
1390.1000, -67.729
1390.1200, -67.654
1390.1400, -67.702
1390.1600, -67.516
1390.1800, -67.571
1390.2000, -67.574
1390.2200, -67.524
1390.2400, -67.465
1390.2600, -67.461
1390.2800, -67.545
1390.3000, -67.385
1390.3200, -67.494
1390.3400, -67.458
1390.3600, -67.498
1390.3800, -67.612
1390.4000, -67.565
1390.4200, -67.526
1390.4400, -67.555
1390.4600, -67.539
1390.4800, -67.558
1390.5000, -67.653
1390.5200, -67.578
1390.5400, -67.668
1390.5600, -67.676
1390.5800, -67.759
1390.6000, -67.675
1390.6200, -67.702
1390.6400, -67.751
1390.6600, -67.750
1390.6800, -67.850
1390.7000, -67.787
1390.7200, -67.860
1390.7400, -67.934
1390.7600, -67.896
1390.7800, -67.871
1390.8000, -67.967
1390.8200, -67.916
1390.8400, -67.998
1390.8600, -68.011
1390.8800, -68.008
1390.9000, -68.039
1390.9200, -68.073
1390.9400, -68.061
1390.9600, -68.008
1390.9800, -68.063
1391.0000, -68.017
1391.0200, -68.075
1391.0400, -68.195
1391.0600, -68.119
1391.0800, -68.116
1391.1000, -68.203
1391.1200, -68.163
1391.1400, -68.161
1391.1600, -68.128
1391.1800, -68.169
1391.2000, -68.190
1391.2200, -68.218
1391.2400, -68.192
1391.2600, -68.152
1391.2800, -68.170
1391.3000, -68.194
1391.3200, -68.200
1391.3400, -68.218
1391.3600, -68.138
1391.3800, -68.195
1391.4000, -68.286
1391.4200, -68.169
1391.4400, -68.124
1391.4600, -68.216
1391.4800, -68.226
1391.5000, -68.292
1391.5200, -68.207
1391.5400, -68.142
1391.5600, -68.278
1391.5800, -68.300
1391.6000, -68.376
1391.6200, -68.254
1391.6400, -68.373
1391.6600, -68.309
1391.6800, -68.270
1391.7000, -68.410
1391.7200, -68.462
1391.7400, -68.508
1391.7600, -68.522
1391.7800, -68.581
1391.8000, -68.528
1391.8200, -68.502
1391.8400, -68.570
1391.8600, -68.528
1391.8800, -68.637
1391.9000, -68.542
1391.9200, -68.641
1391.9400, -68.592
1391.9600, -68.588
1391.9800, -68.591
1392.0000, -68.543
1392.0200, -68.618
1392.0400, -68.761
1392.0600, -68.720
1392.0800, -68.812
1392.1000, -68.848
1392.1200, -68.820
1392.1400, -68.880
1392.1600, -68.942
1392.1800, -68.939
1392.2000, -69.092
1392.2200, -69.158
1392.2400, -69.275
1392.2600, -69.387
1392.2800, -69.267
1392.3000, -69.437
1392.3200, -69.292
1392.3400, -69.328
1392.3600, -69.358
1392.3800, -69.378
1392.4000, -69.412
1392.4200, -69.421
1392.4400, -69.475
1392.4600, -69.477
1392.4800, -69.442
1392.5000, -69.588
1392.5200, -69.727
1392.5400, -69.777
1392.5600, -70.046
1392.5800, -70.262
1392.6000, -70.375
1392.6200, -70.493
1392.6400, -70.423
1392.6600, -70.314
1392.6800, -70.245
1392.7000, -70.045
1392.7200, -70.081
1392.7400, -70.030
1392.7600, -69.947
1392.7800, -69.907
1392.8000, -69.786
1392.8200, -69.600
1392.8400, -69.664
1392.8600, -69.622
1392.8800, -69.692
1392.9000, -69.586
1392.9200, -69.651
1392.9400, -69.691
1392.9600, -69.641
1392.9800, -69.621
1393.0000, -69.682
1393.0200, -69.663
1393.0400, -69.636
1393.0600, -69.846
1393.0800, -69.810
1393.1000, -69.760
1393.1200, -69.855
1393.1400, -69.834
1393.1600, -69.836
1393.1800, -69.839
1393.2000, -70.028
1393.2200, -69.997
1393.2400, -70.020
1393.2600, -70.027
1393.2800, -70.104
1393.3000, -70.073
1393.3200, -70.062
1393.3400, -70.142
1393.3600, -70.254
1393.3800, -70.176
1393.4000, -70.175
1393.4200, -70.248
1393.4400, -70.338
1393.4600, -70.286
1393.4800, -70.340
1393.5000, -70.422
1393.5200, -70.360
1393.5400, -70.412
1393.5600, -70.386
1393.5800, -70.428
1393.6000, -70.484
1393.6200, -70.586
1393.6400, -70.543
1393.6600, -70.591
1393.6800, -70.637
1393.7000, -70.735
1393.7200, -70.707
1393.7400, -70.672
1393.7600, -70.692
1393.7800, -70.708
1393.8000, -70.800
1393.8200, -70.813
1393.8400, -70.854
1393.8600, -70.765
1393.8800, -71.066
1393.9000, -70.995
1393.9200, -71.049
1393.9400, -70.984
1393.9600, -71.157
1393.9800, -71.155
1394.0000, -71.246
1394.0200, -71.160
1394.0400, -71.212
1394.0600, -71.313
1394.0800, -71.366
1394.1000, -71.390
1394.1200, -71.215
1394.1400, -71.442
1394.1600, -71.405
1394.1800, -71.456
1394.2000, -71.508
1394.2200, -71.490
1394.2400, -71.564
1394.2600, -71.567
1394.2800, -71.523
1394.3000, -71.556
1394.3200, -71.664
1394.3400, -71.817
1394.3600, -71.631
1394.3800, -71.621
1394.4000, -71.733
1394.4200, -71.781
1394.4400, -71.796
1394.4600, -71.808
1394.4800, -71.744
1394.5000, -71.763
1394.5200, -71.926
1394.5400, -71.865
1394.5600, -71.916
1394.5800, -71.870
1394.6000, -72.008
1394.6200, -71.971
1394.6400, -72.004
1394.6600, -72.080
1394.6800, -72.154
1394.7000, -72.242
1394.7200, -72.214
1394.7400, -72.259
1394.7600, -72.286
1394.7800, -72.350
1394.8000, -72.269
1394.8200, -72.317
1394.8400, -72.406
1394.8600, -72.341
1394.8800, -72.374
1394.9000, -72.340
1394.9200, -72.477
1394.9400, -72.441
1394.9600, -72.518
1394.9800, -72.750
1395.0000, -72.857
1395.0200, -72.918
1395.0400, -73.104
1395.0600, -73.169
1395.0800, -73.383
1395.1000, -73.316
1395.1200, -73.297
1395.1400, -73.258
1395.1600, -73.181
1395.1800, -72.963
1395.2000, -73.062
1395.2200, -72.953
1395.2400, -72.909
1395.2600, -72.631
1395.2800, -72.572
1395.3000, -72.476
1395.3200, -72.400
1395.3400, -72.470
1395.3600, -72.511
1395.3800, -72.429
1395.4000, -72.405
1395.4200, -72.405
1395.4400, -72.413
1395.4600, -72.484
1395.4800, -72.643
1395.5000, -72.580
1395.5200, -72.700
1395.5400, -72.703
1395.5600, -72.752
1395.5800, -72.932
1395.6000, -72.898
1395.6200, -72.947
1395.6400, -72.716
1395.6600, -72.674
1395.6800, -72.411
1395.7000, -72.644
1395.7200, -72.535
1395.7400, -72.562
1395.7600, -72.391
1395.7800, -72.393
1395.8000, -72.273
1395.8200, -72.090
1395.8400, -72.134
1395.8600, -72.109
1395.8800, -72.113
1395.9000, -72.131
1395.9200, -72.060
1395.9400, -71.881
1395.9600, -72.020
1395.9800, -71.933
1396.0000, -71.919
1396.0200, -71.865
1396.0400, -71.865
1396.0600, -71.814
1396.0800, -71.794
1396.1000, -71.740
1396.1200, -71.745
1396.1400, -71.690
1396.1600, -71.639
1396.1800, -71.657
1396.2000, -71.626
1396.2200, -71.597
1396.2400, -71.554
1396.2600, -71.604
1396.2800, -71.528
1396.3000, -71.686
1396.3200, -71.674
1396.3400, -71.743
1396.3600, -71.692
1396.3800, -71.836
1396.4000, -71.956
1396.4200, -72.120
1396.4400, -72.147
1396.4600, -72.276
1396.4800, -72.146
1396.5000, -71.992
1396.5200, -71.895
1396.5400, -71.927
1396.5600, -71.692
1396.5800, -71.797
1396.6000, -71.733
1396.6200, -71.648
1396.6400, -71.476
1396.6600, -71.493
1396.6800, -71.380
1396.7000, -71.342
1396.7200, -71.238
1396.7400, -71.132
1396.7600, -70.989
1396.7800, -70.878
1396.8000, -70.896
1396.8200, -70.734
1396.8400, -70.785
1396.8600, -70.603
1396.8800, -70.450
1396.9000, -70.417
1396.9200, -70.331
1396.9400, -70.323
1396.9600, -70.324
1396.9800, -70.239
1397.0000, -70.173
1397.0200, -70.096
1397.0400, -70.044
1397.0600, -70.057
1397.0800, -69.983
1397.1000, -70.013
1397.1200, -69.979
1397.1400, -70.006
1397.1600, -69.982
1397.1800, -69.987
1397.2000, -69.920
1397.2200, -69.982
1397.2400, -69.867
1397.2600, -69.903
1397.2800, -69.963
1397.3000, -69.988
1397.3200, -69.928
1397.3400, -69.934
1397.3600, -69.875
1397.3800, -69.744
1397.4000, -69.871
1397.4200, -69.779
1397.4400, -69.668
1397.4600, -69.691
1397.4800, -69.661
1397.5000, -69.607
1397.5200, -69.552
1397.5400, -69.557
1397.5600, -69.416
1397.5800, -69.450
1397.6000, -69.447
1397.6200, -69.456
1397.6400, -69.395
1397.6600, -69.389
1397.6800, -69.340
1397.7000, -69.351
1397.7200, -69.277
1397.7400, -69.240
1397.7600, -69.223
1397.7800, -69.086
1397.8000, -69.172
1397.8200, -69.093
1397.8400, -69.068
1397.8600, -69.156
1397.8800, -68.982
1397.9000, -68.991
1397.9200, -68.994
1397.9400, -68.942
1397.9600, -68.993
1397.9800, -68.909
1398.0000, -68.891
1398.0200, -68.839
1398.0400, -68.867
1398.0600, -68.818
1398.0800, -68.853
1398.1000, -68.773
1398.1200, -68.758
1398.1400, -68.845
1398.1600, -68.761
1398.1800, -68.647
1398.2000, -68.778
1398.2200, -68.782
1398.2400, -68.824
1398.2600, -68.730
1398.2800, -68.576
1398.3000, -68.735
1398.3200, -68.622
1398.3400, -68.571
1398.3600, -68.679
1398.3800, -68.495
1398.4000, -68.556
1398.4200, -68.512
1398.4400, -68.523
1398.4600, -68.580
1398.4800, -68.492
1398.5000, -68.427
1398.5200, -68.425
1398.5400, -68.450
1398.5600, -68.428
1398.5800, -68.369
1398.6000, -68.351
1398.6200, -68.402
1398.6400, -68.379
1398.6600, -68.382
1398.6800, -68.240
1398.7000, -68.324
1398.7200, -68.276
1398.7400, -68.205
1398.7600, -68.201
1398.7800, -68.083
1398.8000, -68.204
1398.8200, -68.023
1398.8400, -68.103
1398.8600, -68.042
1398.8800, -68.038
1398.9000, -68.044
1398.9200, -67.923
1398.9400, -68.003
1398.9600, -67.978
1398.9800, -67.986
1399.0000, -67.901
1399.0200, -67.851
1399.0400, -67.940
1399.0600, -67.838
1399.0800, -67.894
1399.1000, -67.796
1399.1200, -67.712
1399.1400, -67.786
1399.1600, -67.684
1399.1800, -67.824
1399.2000, -67.680
1399.2200, -67.637
1399.2400, -67.645
1399.2600, -67.680
1399.2800, -67.633
1399.3000, -67.607
1399.3200, -67.594
1399.3400, -67.643
1399.3600, -67.549
1399.3800, -67.564
1399.4000, -67.611
1399.4200, -67.601
1399.4400, -67.529
1399.4600, -67.669
1399.4800, -67.633
1399.5000, -67.694
1399.5200, -67.749
1399.5400, -67.765
1399.5600, -67.866
1399.5800, -68.073
1399.6000, -68.122
1399.6200, -68.082
1399.6400, -68.125
1399.6600, -67.967
1399.6800, -67.893
1399.7000, -67.644
1399.7200, -67.652
1399.7400, -67.667
1399.7600, -67.608
1399.7800, -67.458
1399.8000, -67.345
1399.8200, -67.260
1399.8400, -67.156
1399.8600, -67.139
1399.8800, -67.142
1399.9000, -67.114
1399.9200, -67.061
1399.9400, -67.075
1399.9600, -67.045
1399.9800, -66.976
1400.0000, -67.046
