70BCSV 	
// AQ6370B OPTICAL SPECTRUM ANALYZER //                 
25
"CTRWL",1475.000000
"SPAN", 350.000000
"START WL",1300.000000
"STOP WL",1650.000000
"WLFREQ", 0
"REFL",-57.7
"LSCL", 5.0
"RESLN",0.500
"AVG",   1
"SMPLAUTO",      1
"SMPL",       3501
"SMPLINTVL",0.1000
"HIGH1"
"MEAS"
"LSUNT",0
"NMSKH","OFF"
"RESCOR",0
"RESPARM", 9740
"FREQPARM", 9740






"[TRACE DATA]"
1300.0000, -80.546
1300.1000, -80.922
1300.2000, -79.257
1300.3000, -81.902
1300.4000, -78.772
1300.5000, -81.729
1300.6000, -78.475
1300.7000, -79.585
1300.8000, -78.588
1300.9000, -78.107
1301.0000, -77.963
1301.1000, -77.726
1301.2000, -77.950
1301.3000, -77.745
1301.4000, -78.346
1301.5000, -76.740
1301.6000, -77.924
1301.7000, -76.838
1301.8000, -76.363
1301.9000, -75.980
1302.0000, -75.543
1302.1000, -76.242
1302.2000, -76.302
1302.3000, -75.567
1302.4000, -76.303
1302.5000, -75.573
1302.6000, -75.796
1302.7000, -74.919
1302.8000, -74.893
1302.9000, -75.186
1303.0000, -74.293
1303.1000, -74.194
1303.2000, -73.971
1303.3000, -75.179
1303.4000, -74.878
1303.5000, -74.175
1303.6000, -74.108
1303.7000, -73.837
1303.8000, -73.641
1303.9000, -73.175
1304.0000, -73.557
1304.1000, -73.679
1304.2000, -73.699
1304.3000, -73.546
1304.4000, -73.413
1304.5000, -73.158
1304.6000, -73.339
1304.7000, -73.398
1304.8000, -73.040
1304.9000, -72.405
1305.0000, -73.473
1305.1000, -73.355
1305.2000, -73.222
1305.3000, -73.377
1305.4000, -72.862
1305.5000, -73.085
1305.6000, -72.895
1305.7000, -72.577
1305.8000, -72.766
1305.9000, -72.365
1306.0000, -72.898
1306.1000, -72.936
1306.2000, -72.997
1306.3000, -73.471
1306.4000, -72.623
1306.5000, -72.678
1306.6000, -72.690
1306.7000, -72.244
1306.8000, -71.940
1306.9000, -72.431
1307.0000, -72.324
1307.1000, -72.468
1307.2000, -72.183
1307.3000, -72.421
1307.4000, -71.723
1307.5000, -71.871
1307.6000, -71.496
1307.7000, -71.571
1307.8000, -71.996
1307.9000, -71.819
1308.0000, -72.198
1308.1000, -72.149
1308.2000, -71.954
1308.3000, -71.490
1308.4000, -71.503
1308.5000, -71.918
1308.6000, -71.688
1308.7000, -71.684
1308.8000, -71.782
1308.9000, -72.048
1309.0000, -72.343
1309.1000, -72.090
1309.2000, -72.390
1309.3000, -71.706
1309.4000, -72.276
1309.5000, -72.143
1309.6000, -72.377
1309.7000, -72.594
1309.8000, -72.387
1309.9000, -73.036
1310.0000, -72.849
1310.1000, -72.969
1310.2000, -73.163
1310.3000, -72.662
1310.4000, -72.973
1310.5000, -72.683
1310.6000, -73.190
1310.7000, -73.627
1310.8000, -73.739
1310.9000, -74.351
1311.0000, -74.011
1311.1000, -74.027
1311.2000, -74.117
1311.3000, -74.276
1311.4000, -74.301
1311.5000, -74.597
1311.6000, -74.478
1311.7000, -74.881
1311.8000, -74.690
1311.9000, -74.967
1312.0000, -75.103
1312.1000, -75.216
1312.2000, -74.908
1312.3000, -74.484
1312.4000, -75.381
1312.5000, -75.311
1312.6000, -75.451
1312.7000, -76.418
1312.8000, -75.950
1312.9000, -76.221
1313.0000, -76.583
1313.1000, -75.878
1313.2000, -76.313
1313.3000, -76.248
1313.4000, -76.219
1313.5000, -76.448
1313.6000, -76.611
1313.7000, -76.532
1313.8000, -77.109
1313.9000, -76.770
1314.0000, -77.006
1314.1000, -78.261
1314.2000, -78.300
1314.3000, -78.283
1314.4000, -78.196
1314.5000, -78.218
1314.6000, -77.977
1314.7000, -78.745
1314.8000, -79.273
1314.9000, -78.745
1315.0000, -80.016
1315.1000, -78.724
1315.2000, -78.593
1315.3000, -79.583
1315.4000, -78.707
1315.5000, -81.229
1315.6000, -79.124
1315.7000, -79.456
1315.8000, -80.766
1315.9000, -81.197
1316.0000, -79.978
1316.1000, -79.996
1316.2000, -78.862
1316.3000, -80.140
1316.4000, -83.544
1316.5000, -81.036
1316.6000, -83.778
1316.7000, -80.388
1316.8000, -81.179
1316.9000, -81.698
1317.0000, -83.471
1317.1000, -80.212
1317.2000, -83.143
1317.3000, -79.946
1317.4000, -80.344
1317.5000, -84.944
1317.6000, -81.469
1317.7000, -82.276
1317.8000, -80.988
1317.9000, -81.127
1318.0000, -82.242
1318.1000, -84.542
1318.2000, -81.823
1318.3000, -80.587
1318.4000, -81.991
1318.5000, -82.754
1318.6000, -80.681
1318.7000, -84.410
1318.8000, -83.018
1318.9000, -81.528
1319.0000, -81.207
1319.1000, -80.272
1319.2000, -80.773
1319.3000, -80.591
1319.4000, -78.557
1319.5000, -79.980
1319.6000, -80.289
1319.7000, -80.757
1319.8000, -79.551
1319.9000, -79.447
1320.0000, -79.512
1320.1000, -78.948
1320.2000, -79.052
1320.3000, -78.786
1320.4000, -78.889
1320.5000, -79.967
1320.6000, -78.663
1320.7000, -77.245
1320.8000, -79.731
1320.9000, -77.616
1321.0000, -77.818
1321.1000, -78.581
1321.2000, -77.702
1321.3000, -77.334
1321.4000, -77.852
1321.5000, -77.325
1321.6000, -76.859
1321.7000, -76.490
1321.8000, -77.185
1321.9000, -77.729
1322.0000, -76.881
1322.1000, -77.090
1322.2000, -77.078
1322.3000, -76.699
1322.4000, -76.680
1322.5000, -75.984
1322.6000, -77.134
1322.7000, -77.186
1322.8000, -76.418
1322.9000, -77.602
1323.0000, -76.803
1323.1000, -77.008
1323.2000, -75.878
1323.3000, -76.872
1323.4000, -75.778
1323.5000, -76.941
1323.6000, -76.627
1323.7000, -76.146
1323.8000, -76.866
1323.9000, -76.429
1324.0000, -76.026
1324.1000, -76.307
1324.2000, -76.003
1324.3000, -76.328
1324.4000, -77.628
1324.5000, -76.173
1324.6000, -75.824
1324.7000, -75.601
1324.8000, -76.052
1324.9000, -75.602
1325.0000, -75.830
1325.1000, -75.988
1325.2000, -75.960
1325.3000, -75.865
1325.4000, -75.265
1325.5000, -75.646
1325.6000, -76.080
1325.7000, -75.337
1325.8000, -75.013
1325.9000, -75.595
1326.0000, -75.268
1326.1000, -75.445
1326.2000, -75.211
1326.3000, -75.366
1326.4000, -74.753
1326.5000, -75.846
1326.6000, -74.833
1326.7000, -74.437
1326.8000, -74.769
1326.9000, -74.835
1327.0000, -75.479
1327.1000, -74.382
1327.2000, -74.657
1327.3000, -75.132
1327.4000, -75.135
1327.5000, -74.401
1327.6000, -74.834
1327.7000, -74.991
1327.8000, -74.991
1327.9000, -74.633
1328.0000, -74.745
1328.1000, -75.544
1328.2000, -74.951
1328.3000, -74.602
1328.4000, -74.539
1328.5000, -74.871
1328.6000, -74.878
1328.7000, -75.018
1328.8000, -75.184
1328.9000, -74.890
1329.0000, -75.084
1329.1000, -74.968
1329.2000, -75.382
1329.3000, -75.593
1329.4000, -74.898
1329.5000, -75.627
1329.6000, -75.535
1329.7000, -75.592
1329.8000, -75.330
1329.9000, -74.956
1330.0000, -75.995
1330.1000, -75.769
1330.2000, -75.630
1330.3000, -75.231
1330.4000, -76.226
1330.5000, -75.412
1330.6000, -75.897
1330.7000, -75.435
1330.8000, -75.549
1330.9000, -75.950
1331.0000, -75.494
1331.1000, -76.539
1331.2000, -76.322
1331.3000, -75.420
1331.4000, -75.807
1331.5000, -75.953
1331.6000, -75.870
1331.7000, -76.654
1331.8000, -76.189
1331.9000, -76.503
1332.0000, -76.048
1332.1000, -77.234
1332.2000, -76.577
1332.3000, -76.467
1332.4000, -76.611
1332.5000, -76.146
1332.6000, -76.707
1332.7000, -76.639
1332.8000, -77.584
1332.9000, -76.981
1333.0000, -77.024
1333.1000, -77.459
1333.2000, -76.133
1333.3000, -76.912
1333.4000, -77.719
1333.5000, -76.432
1333.6000, -78.300
1333.7000, -76.819
1333.8000, -77.368
1333.9000, -78.868
1334.0000, -77.071
1334.1000, -78.142
1334.2000, -78.464
1334.3000, -77.451
1334.4000, -77.893
1334.5000, -77.770
1334.6000, -78.256
1334.7000, -79.166
1334.8000, -78.897
1334.9000, -79.293
1335.0000, -79.000
1335.1000, -79.766
1335.2000, -79.607
1335.3000, -80.411
1335.4000, -80.086
1335.5000, -80.451
1335.6000, -79.398
1335.7000, -79.497
1335.8000, -79.463
1335.9000, -81.421
1336.0000, -81.666
1336.1000, -79.764
1336.2000, -80.187
1336.3000, -81.243
1336.4000, -81.105
1336.5000, -81.479
1336.6000, -80.595
1336.7000, -82.303
1336.8000, -80.496
1336.9000, -80.452
1337.0000, -84.051
1337.1000, -81.537
1337.2000, -83.573
1337.3000, -81.606
1337.4000, -82.414
1337.5000, -81.950
1337.6000, -81.953
1337.7000, -82.464
1337.8000, -83.535
1337.9000, -81.283
1338.0000, -81.124
1338.1000, -82.531
1338.2000, -81.518
1338.3000, -80.272
1338.4000, -80.568
1338.5000, -82.305
1338.6000, -85.152
1338.7000, -82.046
1338.8000, -81.965
1338.9000, -80.658
1339.0000, -82.606
1339.1000, -79.168
1339.2000, -83.239
1339.3000, -80.767
1339.4000, -80.710
1339.5000, -79.726
1339.6000, -79.989
1339.7000, -80.098
1339.8000, -79.182
1339.9000, -80.058
1340.0000, -79.583
1340.1000, -80.239
1340.2000, -78.946
1340.3000, -79.929
1340.4000, -80.527
1340.5000, -78.205
1340.6000, -78.000
1340.7000, -79.056
1340.8000, -77.952
1340.9000, -79.107
1341.0000, -77.967
1341.1000, -78.194
1341.2000, -77.403
1341.3000, -77.389
1341.4000, -77.897
1341.5000, -77.638
1341.6000, -77.171
1341.7000, -78.412
1341.8000, -77.756
1341.9000, -77.091
1342.0000, -77.378
1342.1000, -76.553
1342.2000, -76.684
1342.3000, -76.289
1342.4000, -77.229
1342.5000, -76.064
1342.6000, -76.820
1342.7000, -76.376
1342.8000, -76.805
1342.9000, -76.411
1343.0000, -76.576
1343.1000, -76.045
1343.2000, -76.035
1343.3000, -75.600
1343.4000, -75.310
1343.5000, -76.153
1343.6000, -75.810
1343.7000, -75.735
1343.8000, -75.239
1343.9000, -76.256
1344.0000, -75.214
1344.1000, -75.503
1344.2000, -75.619
1344.3000, -75.158
1344.4000, -75.149
1344.5000, -74.747
1344.6000, -75.257
1344.7000, -75.129
1344.8000, -75.126
1344.9000, -75.138
1345.0000, -74.530
1345.1000, -74.220
1345.2000, -74.832
1345.3000, -74.435
1345.4000, -73.890
1345.5000, -74.436
1345.6000, -74.614
1345.7000, -74.698
1345.8000, -74.157
1345.9000, -74.470
1346.0000, -74.573
1346.1000, -73.883
1346.2000, -74.002
1346.3000, -74.002
1346.4000, -73.443
1346.5000, -74.285
1346.6000, -73.902
1346.7000, -74.056
1346.8000, -73.458
1346.9000, -73.661
1347.0000, -73.786
1347.1000, -73.591
1347.2000, -73.230
1347.3000, -73.889
1347.4000, -73.980
1347.5000, -73.820
1347.6000, -73.857
1347.7000, -73.894
1347.8000, -73.973
1347.9000, -74.194
1348.0000, -74.229
1348.1000, -74.255
1348.2000, -73.967
1348.3000, -74.088
1348.4000, -74.011
1348.5000, -73.829
1348.6000, -74.317
1348.7000, -74.044
1348.8000, -74.803
1348.9000, -74.586
1349.0000, -74.252
1349.1000, -73.916
1349.2000, -74.306
1349.3000, -74.520
1349.4000, -74.518
1349.5000, -74.321
1349.6000, -74.612
1349.7000, -74.548
1349.8000, -74.487
1349.9000, -74.952
1350.0000, -74.718
1350.1000, -74.392
1350.2000, -74.659
1350.3000, -74.559
1350.4000, -74.318
1350.5000, -74.804
1350.6000, -75.609
1350.7000, -74.621
1350.8000, -75.145
1350.9000, -74.872
1351.0000, -75.219
1351.1000, -74.915
1351.2000, -74.635
1351.3000, -74.770
1351.4000, -74.316
1351.5000, -74.704
1351.6000, -74.861
1351.7000, -75.077
1351.8000, -74.991
1351.9000, -75.464
1352.0000, -74.924
1352.1000, -75.161
1352.2000, -75.368
1352.3000, -75.139
1352.4000, -75.151
1352.5000, -75.431
1352.6000, -75.346
1352.7000, -75.426
1352.8000, -75.217
1352.9000, -75.851
1353.0000, -75.881
1353.1000, -75.537
1353.2000, -76.167
1353.3000, -76.124
1353.4000, -75.949
1353.5000, -76.438
1353.6000, -76.220
1353.7000, -76.739
1353.8000, -76.764
1353.9000, -76.658
1354.0000, -77.064
1354.1000, -76.168
1354.2000, -76.343
1354.3000, -77.617
1354.4000, -76.873
1354.5000, -77.522
1354.6000, -77.877
1354.7000, -77.741
1354.8000, -78.122
1354.9000, -78.083
1355.0000, -77.523
1355.1000, -77.819
1355.2000, -78.506
1355.3000, -78.798
1355.4000, -78.038
1355.5000, -79.175
1355.6000, -77.832
1355.7000, -80.230
1355.8000, -79.697
1355.9000, -79.640
1356.0000, -78.865
1356.1000, -81.348
1356.2000, -80.145
1356.3000, -79.525
1356.4000, -80.639
1356.5000, -79.810
1356.6000, -80.387
1356.7000, -80.499
1356.8000, -80.724
1356.9000, -80.978
1357.0000, -80.649
1357.1000, -81.056
1357.2000, -82.903
1357.3000, -80.747
1357.4000, -82.252
1357.5000, -79.550
1357.6000, -80.588
1357.7000, -83.490
1357.8000, -82.114
1357.9000, -81.305
1358.0000, -80.477
1358.1000, -81.762
1358.2000, -81.153
1358.3000, -81.023
1358.4000, -82.582
1358.5000, -81.382
1358.6000, -82.299
1358.7000, -81.595
1358.8000, -83.557
1358.9000, -81.847
1359.0000, -81.988
1359.1000, -80.873
1359.2000, -82.690
1359.3000, -82.335
1359.4000, -81.589
1359.5000, -82.602
1359.6000, -80.734
1359.7000, -88.719
1359.8000, -81.434
1359.9000, -81.098
1360.0000, -81.288
1360.1000, -80.548
1360.2000, -80.994
1360.3000, -83.066
1360.4000, -82.757
1360.5000, -79.962
1360.6000, -79.840
1360.7000, -81.220
1360.8000, -81.233
1360.9000, -82.103
1361.0000, -80.714
1361.1000, -79.072
1361.2000, -80.700
1361.3000, -80.862
1361.4000, -78.734
1361.5000, -80.592
1361.6000, -80.609
1361.7000, -79.876
1361.8000, -79.120
1361.9000, -79.516
1362.0000, -79.749
1362.1000, -78.759
1362.2000, -78.882
1362.3000, -80.029
1362.4000, -78.963
1362.5000, -78.414
1362.6000, -79.134
1362.7000, -79.900
1362.8000, -78.278
1362.9000, -78.453
1363.0000, -77.436
1363.1000, -77.449
1363.2000, -76.741
1363.3000, -77.430
1363.4000, -76.847
1363.5000, -76.823
1363.6000, -76.502
1363.7000, -76.682
1363.8000, -76.420
1363.9000, -76.221
1364.0000, -76.154
1364.1000, -76.300
1364.2000, -75.827
1364.3000, -75.769
1364.4000, -75.274
1364.5000, -75.783
1364.6000, -75.864
1364.7000, -75.812
1364.8000, -75.773
1364.9000, -75.757
1365.0000, -75.228
1365.1000, -74.654
1365.2000, -74.536
1365.3000, -74.518
1365.4000, -74.272
1365.5000, -75.034
1365.6000, -74.927
1365.7000, -74.262
1365.8000, -74.218
1365.9000, -73.673
1366.0000, -73.894
1366.1000, -73.716
1366.2000, -73.577
1366.3000, -73.386
1366.4000, -73.321
1366.5000, -73.263
1366.6000, -73.379
1366.7000, -73.221
1366.8000, -72.802
1366.9000, -73.382
1367.0000, -73.301
1367.1000, -73.144
1367.2000, -73.232
1367.3000, -72.917
1367.4000, -72.743
1367.5000, -72.886
1367.6000, -73.003
1367.7000, -73.033
1367.8000, -72.881
1367.9000, -73.683
1368.0000, -72.692
1368.1000, -72.852
1368.2000, -73.116
1368.3000, -72.637
1368.4000, -72.522
1368.5000, -72.902
1368.6000, -72.889
1368.7000, -73.020
1368.8000, -72.958
1368.9000, -72.786
1369.0000, -72.668
1369.1000, -72.540
1369.2000, -72.015
1369.3000, -71.943
1369.4000, -71.888
1369.5000, -72.346
1369.6000, -72.217
1369.7000, -72.103
1369.8000, -71.773
1369.9000, -72.331
1370.0000, -72.262
1370.1000, -71.906
1370.2000, -72.227
1370.3000, -71.847
1370.4000, -72.048
1370.5000, -71.787
1370.6000, -71.475
1370.7000, -71.303
1370.8000, -71.813
1370.9000, -72.172
1371.0000, -72.345
1371.1000, -72.164
1371.2000, -72.239
1371.3000, -71.981
1371.4000, -71.726
1371.5000, -71.589
1371.6000, -71.425
1371.7000, -71.385
1371.8000, -71.450
1371.9000, -71.676
1372.0000, -71.720
1372.1000, -71.812
1372.2000, -71.698
1372.3000, -72.092
1372.4000, -71.688
1372.5000, -71.757
1372.6000, -71.569
1372.7000, -71.349
1372.8000, -71.408
1372.9000, -71.338
1373.0000, -71.934
1373.1000, -71.604
1373.2000, -71.828
1373.3000, -71.970
1373.4000, -71.927
1373.5000, -71.836
1373.6000, -72.153
1373.7000, -71.735
1373.8000, -71.799
1373.9000, -71.836
1374.0000, -72.101
1374.1000, -72.369
1374.2000, -72.083
1374.3000, -72.648
1374.4000, -72.630
1374.5000, -72.792
1374.6000, -72.654
1374.7000, -72.957
1374.8000, -72.791
1374.9000, -73.133
1375.0000, -73.270
1375.1000, -73.281
1375.2000, -73.559
1375.3000, -73.491
1375.4000, -73.270
1375.5000, -73.553
1375.6000, -73.455
1375.7000, -73.651
1375.8000, -73.632
1375.9000, -73.947
1376.0000, -74.046
1376.1000, -74.246
1376.2000, -74.081
1376.3000, -74.359
1376.4000, -74.794
1376.5000, -74.356
1376.6000, -74.382
1376.7000, -74.151
1376.8000, -75.495
1376.9000, -74.822
1377.0000, -74.919
1377.1000, -75.043
1377.2000, -75.612
1377.3000, -75.622
1377.4000, -76.002
1377.5000, -75.524
1377.6000, -75.332
1377.7000, -75.649
1377.8000, -75.928
1377.9000, -75.662
1378.0000, -75.459
1378.1000, -76.001
1378.2000, -76.944
1378.3000, -75.797
1378.4000, -76.414
1378.5000, -77.568
1378.6000, -76.174
1378.7000, -77.263
1378.8000, -77.570
1378.9000, -77.543
1379.0000, -77.347
1379.1000, -77.540
1379.2000, -77.268
1379.3000, -78.087
1379.4000, -77.641
1379.5000, -77.003
1379.6000, -77.729
1379.7000, -78.246
1379.8000, -79.070
1379.9000, -78.040
1380.0000, -78.805
1380.1000, -79.853
1380.2000, -77.420
1380.3000, -80.124
1380.4000, -81.111
1380.5000, -79.934
1380.6000, -79.539
1380.7000, -79.511
1380.8000, -83.276
1380.9000, -79.192
1381.0000, -79.026
1381.1000, -79.557
1381.2000, -79.128
1381.3000, -79.268
1381.4000, -79.957
1381.5000, -80.126
1381.6000, -79.568
1381.7000, -80.160
1381.8000, -78.247
1381.9000, -78.044
1382.0000, -78.424
1382.1000, -79.377
1382.2000, -79.043
1382.3000, -77.627
1382.4000, -79.218
1382.5000, -78.031
1382.6000, -78.718
1382.7000, -79.258
1382.8000, -78.609
1382.9000, -77.821
1383.0000, -78.774
1383.1000, -77.877
1383.2000, -77.630
1383.3000, -76.951
1383.4000, -76.813
1383.5000, -76.898
1383.6000, -77.194
1383.7000, -75.849
1383.8000, -76.401
1383.9000, -76.177
1384.0000, -76.159
1384.1000, -75.429
1384.2000, -76.315
1384.3000, -75.023
1384.4000, -74.724
1384.5000, -74.827
1384.6000, -74.842
1384.7000, -74.492
1384.8000, -74.702
1384.9000, -74.305
1385.0000, -74.340
1385.1000, -74.178
1385.2000, -74.212
1385.3000, -74.097
1385.4000, -73.829
1385.5000, -73.724
1385.6000, -73.476
1385.7000, -73.201
1385.8000, -73.273
1385.9000, -73.107
1386.0000, -72.761
1386.1000, -72.536
1386.2000, -72.596
1386.3000, -72.488
1386.4000, -72.532
1386.5000, -72.284
1386.6000, -72.349
1386.7000, -72.051
1386.8000, -71.571
1386.9000, -71.544
1387.0000, -71.738
1387.1000, -71.586
1387.2000, -71.526
1387.3000, -71.301
1387.4000, -71.416
1387.5000, -70.920
1387.6000, -71.328
1387.7000, -71.426
1387.8000, -71.440
1387.9000, -71.428
1388.0000, -71.808
1388.1000, -71.529
1388.2000, -71.147
1388.3000, -71.066
1388.4000, -71.198
1388.5000, -70.838
1388.6000, -70.835
1388.7000, -70.709
1388.8000, -70.505
1388.9000, -70.402
1389.0000, -70.855
1389.1000, -70.430
1389.2000, -70.472
1389.3000, -70.230
1389.4000, -70.401
1389.5000, -70.305
1389.6000, -70.238
1389.7000, -70.323
1389.8000, -70.141
1389.9000, -70.229
1390.0000, -70.383
1390.1000, -70.302
1390.2000, -69.834
1390.3000, -70.132
1390.4000, -69.867
1390.5000, -69.636
1390.6000, -69.675
1390.7000, -69.785
1390.8000, -69.619
1390.9000, -69.926
1391.0000, -69.674
1391.1000, -69.579
1391.2000, -69.424
1391.3000, -69.499
1391.4000, -69.672
1391.5000, -69.330
1391.6000, -69.210
1391.7000, -69.441
1391.8000, -69.399
1391.9000, -69.360
1392.0000, -69.319
1392.1000, -69.591
1392.2000, -69.542
1392.3000, -69.648
1392.4000, -69.844
1392.5000, -69.916
1392.6000, -70.131
1392.7000, -69.828
1392.8000, -69.698
1392.9000, -69.743
1393.0000, -69.399
1393.1000, -69.449
1393.2000, -69.436
1393.3000, -69.557
1393.4000, -69.405
1393.5000, -69.378
1393.6000, -69.219
1393.7000, -69.696
1393.8000, -69.464
1393.9000, -69.470
1394.0000, -69.727
1394.1000, -69.640
1394.2000, -69.576
1394.3000, -69.908
1394.4000, -69.936
1394.5000, -70.146
1394.6000, -70.080
1394.7000, -70.061
1394.8000, -70.273
1394.9000, -70.722
1395.0000, -70.434
1395.1000, -70.807
1395.2000, -70.972
1395.3000, -71.001
1395.4000, -70.815
1395.5000, -70.911
1395.6000, -70.774
1395.7000, -70.883
1395.8000, -71.143
1395.9000, -70.813
1396.0000, -70.941
1396.1000, -70.999
1396.2000, -71.036
1396.3000, -71.438
1396.4000, -71.707
1396.5000, -71.692
1396.6000, -72.097
1396.7000, -71.633
1396.8000, -71.817
1396.9000, -71.470
1397.0000, -71.528
1397.1000, -71.860
1397.2000, -72.087
1397.3000, -72.183
1397.4000, -72.057
1397.5000, -71.897
1397.6000, -72.427
1397.7000, -72.180
1397.8000, -71.668
1397.9000, -72.533
1398.0000, -72.201
1398.1000, -72.700
1398.2000, -72.527
1398.3000, -72.702
1398.4000, -72.574
1398.5000, -72.771
1398.6000, -73.417
1398.7000, -72.749
1398.8000, -73.370
1398.9000, -73.364
1399.0000, -72.632
1399.1000, -73.432
1399.2000, -73.889
1399.3000, -73.881
1399.4000, -73.907
1399.5000, -74.471
1399.6000, -74.240
1399.7000, -74.543
1399.8000, -74.042
1399.9000, -75.078
1400.0000, -75.356
1400.1000, -74.636
1400.2000, -74.594
1400.3000, -75.320
1400.4000, -75.153
1400.5000, -75.427
1400.6000, -75.947
1400.7000, -75.881
1400.8000, -76.937
1400.9000, -77.612
1401.0000, -76.479
1401.1000, -77.200
1401.2000, -76.381
1401.3000, -77.059
1401.4000, -76.577
1401.5000, -77.348
1401.6000, -78.324
1401.7000, -77.955
1401.8000, -76.526
1401.9000, -79.070
1402.0000, -77.847
1402.1000, -79.352
1402.2000, -77.613
1402.3000, -78.680
1402.4000, -78.641
1402.5000, -77.588
1402.6000, -78.739
1402.7000, -78.979
1402.8000, -79.647
1402.9000, -79.491
1403.0000, -79.437
1403.1000, -80.689
1403.2000, -78.659
1403.3000, -78.926
1403.4000, -79.579
1403.5000, -77.818
1403.6000, -80.804
1403.7000, -80.060
1403.8000, -79.849
1403.9000, -79.838
1404.0000, -80.896
1404.1000, -78.815
1404.2000, -81.428
1404.3000, -79.194
1404.4000, -79.130
1404.5000, -78.640
1404.6000, -80.100
1404.7000, -80.156
1404.8000, -79.402
1404.9000, -78.382
1405.0000, -80.188
1405.1000, -78.616
1405.2000, -79.207
1405.3000, -78.840
1405.4000, -78.358
1405.5000, -77.435
1405.6000, -77.747
1405.7000, -76.803
1405.8000, -78.229
1405.9000, -77.030
1406.0000, -77.392
1406.1000, -76.599
1406.2000, -78.008
1406.3000, -76.870
1406.4000, -77.356
1406.5000, -76.462
1406.6000, -76.746
1406.7000, -76.296
1406.8000, -76.828
1406.9000, -76.612
1407.0000, -75.996
1407.1000, -76.186
1407.2000, -76.355
1407.3000, -75.610
1407.4000, -75.920
1407.5000, -75.565
1407.6000, -75.346
1407.7000, -74.958
1407.8000, -75.548
1407.9000, -75.609
1408.0000, -74.220
1408.1000, -75.663
1408.2000, -74.511
1408.3000, -73.964
1408.4000, -74.551
1408.5000, -75.398
1408.6000, -74.781
1408.7000, -73.602
1408.8000, -74.853
1408.9000, -74.303
1409.0000, -74.339
1409.1000, -74.640
1409.2000, -74.382
1409.3000, -74.270
1409.4000, -74.394
1409.5000, -74.152
1409.6000, -74.269
1409.7000, -74.197
1409.8000, -73.818
1409.9000, -73.712
1410.0000, -73.683
1410.1000, -73.429
1410.2000, -73.148
1410.3000, -73.557
1410.4000, -73.448
1410.5000, -72.872
1410.6000, -73.626
1410.7000, -72.833
1410.8000, -73.250
1410.9000, -72.994
1411.0000, -72.905
1411.1000, -72.944
1411.2000, -72.422
1411.3000, -72.768
1411.4000, -73.241
1411.5000, -72.619
1411.6000, -72.754
1411.7000, -72.686
1411.8000, -72.605
1411.9000, -72.472
1412.0000, -72.292
1412.1000, -72.126
1412.2000, -72.735
1412.3000, -72.146
1412.4000, -72.450
1412.5000, -72.007
1412.6000, -72.108
1412.7000, -72.437
1412.8000, -72.628
1412.9000, -72.353
1413.0000, -71.512
1413.1000, -71.815
1413.2000, -72.129
1413.3000, -72.026
1413.4000, -71.747
1413.5000, -72.217
1413.6000, -71.771
1413.7000, -72.258
1413.8000, -72.133
1413.9000, -71.869
1414.0000, -72.069
1414.1000, -72.012
1414.2000, -72.702
1414.3000, -71.775
1414.4000, -71.847
1414.5000, -71.985
1414.6000, -72.156
1414.7000, -72.032
1414.8000, -71.775
1414.9000, -72.216
1415.0000, -72.267
1415.1000, -71.934
1415.2000, -71.933
1415.3000, -72.159
1415.4000, -71.725
1415.5000, -71.841
1415.6000, -71.835
1415.7000, -72.421
1415.8000, -72.190
1415.9000, -71.987
1416.0000, -71.801
1416.1000, -72.397
1416.2000, -72.258
1416.3000, -71.757
1416.4000, -72.128
1416.5000, -72.300
1416.6000, -72.273
1416.7000, -72.195
1416.8000, -72.150
1416.9000, -72.943
1417.0000, -72.510
1417.1000, -72.751
1417.2000, -72.436
1417.3000, -72.154
1417.4000, -72.495
1417.5000, -72.703
1417.6000, -73.269
1417.7000, -72.375
1417.8000, -72.835
1417.9000, -72.584
1418.0000, -72.613
1418.1000, -72.771
1418.2000, -72.954
1418.3000, -72.771
1418.4000, -72.610
1418.5000, -72.768
1418.6000, -72.913
1418.7000, -73.128
1418.8000, -72.560
1418.9000, -73.163
1419.0000, -73.062
1419.1000, -73.592
1419.2000, -73.654
1419.3000, -73.505
1419.4000, -73.090
1419.5000, -73.206
1419.6000, -72.860
1419.7000, -73.390
1419.8000, -73.471
1419.9000, -73.461
1420.0000, -73.548
1420.1000, -73.577
1420.2000, -73.771
1420.3000, -74.036
1420.4000, -73.995
1420.5000, -73.779
1420.6000, -73.704
1420.7000, -73.816
1420.8000, -74.050
1420.9000, -74.153
1421.0000, -74.915
1421.1000, -74.192
1421.2000, -74.548
1421.3000, -74.167
1421.4000, -74.512
1421.5000, -74.374
1421.6000, -74.621
1421.7000, -75.313
1421.8000, -74.250
1421.9000, -74.661
1422.0000, -75.201
1422.1000, -75.920
1422.2000, -75.131
1422.3000, -75.242
1422.4000, -75.566
1422.5000, -75.643
1422.6000, -76.438
1422.7000, -75.813
1422.8000, -76.386
1422.9000, -76.994
1423.0000, -76.868
1423.1000, -77.010
1423.2000, -77.019
1423.3000, -76.384
1423.4000, -76.892
1423.5000, -77.372
1423.6000, -76.202
1423.7000, -77.412
1423.8000, -77.726
1423.9000, -77.930
1424.0000, -77.111
1424.1000, -77.979
1424.2000, -79.134
1424.3000, -78.807
1424.4000, -77.162
1424.5000, -77.036
1424.6000, -78.379
1424.7000, -79.413
1424.8000, -78.208
1424.9000, -78.928
1425.0000, -79.193
1425.1000, -80.242
1425.2000, -79.593
1425.3000, -78.481
1425.4000, -79.505
1425.5000, -81.677
1425.6000, -80.302
1425.7000, -81.935
1425.8000, -78.863
1425.9000, -79.647
1426.0000, -79.559
1426.1000, -80.555
1426.2000, -80.962
1426.3000, -80.168
1426.4000, -80.950
1426.5000, -80.866
1426.6000, -78.493
1426.7000, -81.723
1426.8000, -81.882
1426.9000, -81.407
1427.0000, -79.711
1427.1000, -80.895
1427.2000, -80.369
1427.3000, -80.060
1427.4000, -79.479
1427.5000, -80.545
1427.6000, -79.588
1427.7000, -79.418
1427.8000, -81.728
1427.9000, -82.162
1428.0000, -79.327
1428.1000, -79.293
1428.2000, -80.442
1428.3000, -78.445
1428.4000, -80.608
1428.5000, -79.311
1428.6000, -78.233
1428.7000, -78.341
1428.8000, -78.117
1428.9000, -79.431
1429.0000, -77.566
1429.1000, -79.797
1429.2000, -78.575
1429.3000, -76.985
1429.4000, -78.727
1429.5000, -77.937
1429.6000, -78.920
1429.7000, -77.897
1429.8000, -77.818
1429.9000, -77.553
1430.0000, -77.633
1430.1000, -76.852
1430.2000, -76.160
1430.3000, -77.133
1430.4000, -76.674
1430.5000, -77.269
1430.6000, -75.945
1430.7000, -76.198
1430.8000, -76.010
1430.9000, -75.960
1431.0000, -75.795
1431.1000, -76.160
1431.2000, -75.380
1431.3000, -75.886
1431.4000, -76.326
1431.5000, -74.985
1431.6000, -75.209
1431.7000, -75.471
1431.8000, -74.806
1431.9000, -74.940
1432.0000, -74.973
1432.1000, -74.935
1432.2000, -74.247
1432.3000, -74.633
1432.4000, -74.239
1432.5000, -74.077
1432.6000, -74.311
1432.7000, -74.308
1432.8000, -74.305
1432.9000, -73.487
1433.0000, -73.725
1433.1000, -73.316
1433.2000, -73.194
1433.3000, -73.978
1433.4000, -72.561
1433.5000, -73.235
1433.6000, -73.461
1433.7000, -73.063
1433.8000, -72.857
1433.9000, -72.953
1434.0000, -72.727
1434.1000, -73.274
1434.2000, -72.184
1434.3000, -72.983
1434.4000, -72.352
1434.5000, -72.098
1434.6000, -72.075
1434.7000, -72.280
1434.8000, -72.253
1434.9000, -71.774
1435.0000, -72.462
1435.1000, -71.708
1435.2000, -71.670
1435.3000, -71.796
1435.4000, -71.864
1435.5000, -71.559
1435.6000, -71.509
1435.7000, -71.404
1435.8000, -71.269
1435.9000, -71.691
1436.0000, -71.229
1436.1000, -71.680
1436.2000, -71.035
1436.3000, -71.274
1436.4000, -71.014
1436.5000, -70.980
1436.6000, -71.159
1436.7000, -71.250
1436.8000, -71.099
1436.9000, -70.749
1437.0000, -70.997
1437.1000, -71.153
1437.2000, -70.764
1437.3000, -71.017
1437.4000, -70.986
1437.5000, -70.518
1437.6000, -71.075
1437.7000, -71.338
1437.8000, -70.817
1437.9000, -71.410
1438.0000, -70.607
1438.1000, -71.140
1438.2000, -70.645
1438.3000, -70.848
1438.4000, -70.649
1438.5000, -70.697
1438.6000, -70.583
1438.7000, -70.887
1438.8000, -70.701
1438.9000, -70.769
1439.0000, -70.893
1439.1000, -70.858
1439.2000, -70.649
1439.3000, -70.810
1439.4000, -70.573
1439.5000, -70.949
1439.6000, -70.871
1439.7000, -70.308
1439.8000, -71.077
1439.9000, -70.924
1440.0000, -70.809
1440.1000, -70.501
1440.2000, -70.567
1440.3000, -70.649
1440.4000, -70.855
1440.5000, -70.846
1440.6000, -70.617
1440.7000, -70.835
1440.8000, -70.293
1440.9000, -70.898
1441.0000, -70.443
1441.1000, -70.787
1441.2000, -70.614
1441.3000, -70.727
1441.4000, -70.802
1441.5000, -70.891
1441.6000, -71.103
1441.7000, -70.766
1441.8000, -71.019
1441.9000, -70.976
1442.0000, -71.187
1442.1000, -70.849
1442.2000, -71.141
1442.3000, -71.044
1442.4000, -71.010
1442.5000, -71.174
1442.6000, -71.287
1442.7000, -71.211
1442.8000, -71.270
1442.9000, -71.638
1443.0000, -71.456
1443.1000, -71.290
1443.2000, -71.458
1443.3000, -71.644
1443.4000, -71.320
1443.5000, -71.760
1443.6000, -71.508
1443.7000, -71.970
1443.8000, -71.773
1443.9000, -71.612
1444.0000, -72.033
1444.1000, -72.083
1444.2000, -72.026
1444.3000, -72.429
1444.4000, -72.111
1444.5000, -72.620
1444.6000, -72.457
1444.7000, -72.502
1444.8000, -72.544
1444.9000, -73.023
1445.0000, -72.724
1445.1000, -73.067
1445.2000, -72.683
1445.3000, -73.618
1445.4000, -73.623
1445.5000, -73.674
1445.6000, -73.604
1445.7000, -73.719
1445.8000, -73.698
1445.9000, -73.882
1446.0000, -74.343
1446.1000, -74.154
1446.2000, -73.618
1446.3000, -74.039
1446.4000, -73.991
1446.5000, -74.336
1446.6000, -74.258
1446.7000, -74.306
1446.8000, -74.150
1446.9000, -74.282
1447.0000, -74.734
1447.1000, -75.087
1447.2000, -75.258
1447.3000, -75.038
1447.4000, -75.182
1447.5000, -75.758
1447.6000, -75.512
1447.7000, -75.781
1447.8000, -75.840
1447.9000, -75.760
1448.0000, -75.378
1448.1000, -76.639
1448.2000, -76.398
1448.3000, -76.133
1448.4000, -77.272
1448.5000, -77.487
1448.6000, -77.266
1448.7000, -77.086
1448.8000, -77.071
1448.9000, -76.996
1449.0000, -77.738
1449.1000, -76.712
1449.2000, -78.228
1449.3000, -77.127
1449.4000, -77.752
1449.5000, -77.266
1449.6000, -80.325
1449.7000, -79.624
1449.8000, -78.448
1449.9000, -78.296
1450.0000, -78.903
1450.1000, -79.062
1450.2000, -80.670
1450.3000, -80.300
1450.4000, -79.456
1450.5000, -78.863
1450.6000, -82.082
1450.7000, -78.274
1450.8000, -81.521
1450.9000, -80.642
1451.0000, -79.079
1451.1000, -79.135
1451.2000, -80.619
1451.3000, -79.770
1451.4000, -78.687
1451.5000, -80.002
1451.6000, -78.577
1451.7000, -80.476
1451.8000, -78.967
1451.9000, -79.669
1452.0000, -78.728
1452.1000, -79.234
1452.2000, -77.606
1452.3000, -77.984
1452.4000, -80.504
1452.5000, -78.337
1452.6000, -79.150
1452.7000, -77.521
1452.8000, -78.102
1452.9000, -77.836
1453.0000, -78.202
1453.1000, -78.261
1453.2000, -78.011
1453.3000, -77.598
1453.4000, -77.368
1453.5000, -76.669
1453.6000, -76.883
1453.7000, -77.022
1453.8000, -76.648
1453.9000, -76.687
1454.0000, -76.163
1454.1000, -76.030
1454.2000, -75.856
1454.3000, -75.608
1454.4000, -75.725
1454.5000, -74.793
1454.6000, -75.522
1454.7000, -75.202
1454.8000, -75.191
1454.9000, -75.183
1455.0000, -74.542
1455.1000, -74.639
1455.2000, -74.811
1455.3000, -74.704
1455.4000, -74.298
1455.5000, -74.152
1455.6000, -74.222
1455.7000, -73.998
1455.8000, -74.062
1455.9000, -73.695
1456.0000, -73.530
1456.1000, -73.548
1456.2000, -73.523
1456.3000, -73.163
1456.4000, -72.917
1456.5000, -73.097
1456.6000, -72.960
1456.7000, -72.636
1456.8000, -72.742
1456.9000, -72.430
1457.0000, -72.687
1457.1000, -72.124
1457.2000, -72.523
1457.3000, -72.311
1457.4000, -71.949
1457.5000, -71.998
1457.6000, -71.982
1457.7000, -71.791
1457.8000, -71.567
1457.9000, -71.445
1458.0000, -72.091
1458.1000, -71.737
1458.2000, -71.403
1458.3000, -71.363
1458.4000, -71.288
1458.5000, -71.083
1458.6000, -71.197
1458.7000, -71.023
1458.8000, -71.083
1458.9000, -70.898
1459.0000, -70.857
1459.1000, -71.234
1459.2000, -70.513
1459.3000, -70.747
1459.4000, -70.607
1459.5000, -70.607
1459.6000, -70.757
1459.7000, -70.443
1459.8000, -70.457
1459.9000, -70.261
1460.0000, -70.125
1460.1000, -70.485
1460.2000, -70.437
1460.3000, -70.235
1460.4000, -70.282
1460.5000, -70.163
1460.6000, -70.163
1460.7000, -70.138
1460.8000, -69.878
1460.9000, -69.812
1461.0000, -69.908
1461.1000, -70.024
1461.2000, -69.812
1461.3000, -69.670
1461.4000, -69.798
1461.5000, -69.661
1461.6000, -69.336
1461.7000, -69.810
1461.8000, -69.645
1461.9000, -69.303
1462.0000, -69.634
1462.1000, -69.776
1462.2000, -69.517
1462.3000, -69.762
1462.4000, -69.557
1462.5000, -69.439
1462.6000, -69.545
1462.7000, -69.519
1462.8000, -69.258
1462.9000, -69.207
1463.0000, -69.731
1463.1000, -69.320
1463.2000, -69.501
1463.3000, -69.300
1463.4000, -69.415
1463.5000, -69.248
1463.6000, -69.158
1463.7000, -69.199
1463.8000, -69.399
1463.9000, -69.303
1464.0000, -69.166
1464.1000, -69.067
1464.2000, -69.528
1464.3000, -69.286
1464.4000, -69.071
1464.5000, -69.137
1464.6000, -69.274
1464.7000, -69.284
1464.8000, -69.229
1464.9000, -69.221
1465.0000, -69.196
1465.1000, -69.472
1465.2000, -69.515
1465.3000, -69.572
1465.4000, -69.664
1465.5000, -69.589
1465.6000, -69.366
1465.7000, -69.189
1465.8000, -69.615
1465.9000, -69.502
1466.0000, -69.805
1466.1000, -69.697
1466.2000, -69.482
1466.3000, -69.691
1466.4000, -69.790
1466.5000, -69.853
1466.6000, -69.674
1466.7000, -69.937
1466.8000, -69.590
1466.9000, -69.991
1467.0000, -70.042
1467.1000, -69.972
1467.2000, -70.176
1467.3000, -70.052
1467.4000, -70.236
1467.5000, -70.130
1467.6000, -70.456
1467.7000, -70.335
1467.8000, -70.490
1467.9000, -70.479
1468.0000, -70.385
1468.1000, -70.617
1468.2000, -70.840
1468.3000, -70.405
1468.4000, -70.868
1468.5000, -70.801
1468.6000, -70.729
1468.7000, -71.182
1468.8000, -70.864
1468.9000, -71.056
1469.0000, -71.242
1469.1000, -71.162
1469.2000, -71.270
1469.3000, -71.656
1469.4000, -71.484
1469.5000, -71.385
1469.6000, -71.747
1469.7000, -71.562
1469.8000, -71.774
1469.9000, -72.019
1470.0000, -72.063
1470.1000, -71.725
1470.2000, -72.062
1470.3000, -72.251
1470.4000, -71.974
1470.5000, -72.254
1470.6000, -72.658
1470.7000, -72.879
1470.8000, -72.676
1470.9000, -73.247
1471.0000, -73.111
1471.1000, -73.149
1471.2000, -73.035
1471.3000, -73.608
1471.4000, -73.581
1471.5000, -73.200
1471.6000, -73.763
1471.7000, -73.967
1471.8000, -73.851
1471.9000, -74.101
1472.0000, -74.163
1472.1000, -74.260
1472.2000, -74.467
1472.3000, -74.562
1472.4000, -74.934
1472.5000, -74.887
1472.6000, -74.522
1472.7000, -74.887
1472.8000, -74.711
1472.9000, -75.225
1473.0000, -75.598
1473.1000, -75.620
1473.2000, -76.100
1473.3000, -75.556
1473.4000, -75.944
1473.5000, -75.896
1473.6000, -75.641
1473.7000, -76.604
1473.8000, -76.736
1473.9000, -77.057
1474.0000, -76.449
1474.1000, -77.345
1474.2000, -77.543
1474.3000, -76.659
1474.4000, -77.564
1474.5000, -77.512
1474.6000, -77.815
1474.7000, -78.441
1474.8000, -77.841
1474.9000, -77.708
1475.0000, -79.206
1475.1000, -78.724
1475.2000, -78.908
1475.3000, -78.529
1475.4000, -78.699
1475.5000, -78.373
1475.6000, -79.105
1475.7000, -79.087
1475.8000, -78.189
1475.9000, -79.575
1476.0000, -78.552
1476.1000, -79.242
1476.2000, -78.866
1476.3000, -79.089
1476.4000, -78.633
1476.5000, -78.743
1476.6000, -78.738
1476.7000, -80.924
1476.8000, -78.169
1476.9000, -78.921
1477.0000, -78.725
1477.1000, -78.528
1477.2000, -78.414
1477.3000, -78.714
1477.4000, -78.227
1477.5000, -79.159
1477.6000, -77.786
1477.7000, -77.069
1477.8000, -77.432
1477.9000, -77.799
1478.0000, -77.276
1478.1000, -76.977
1478.2000, -76.205
1478.3000, -76.528
1478.4000, -76.572
1478.5000, -76.428
1478.6000, -76.445
1478.7000, -75.672
1478.8000, -76.746
1478.9000, -75.945
1479.0000, -75.396
1479.1000, -76.147
1479.2000, -74.931
1479.3000, -75.262
1479.4000, -75.026
1479.5000, -74.984
1479.6000, -74.806
1479.7000, -74.646
1479.8000, -74.865
1479.9000, -74.860
1480.0000, -74.032
1480.1000, -74.131
1480.2000, -73.964
1480.3000, -73.925
1480.4000, -73.758
1480.5000, -73.824
1480.6000, -73.335
1480.7000, -73.522
1480.8000, -73.100
1480.9000, -73.197
1481.0000, -72.583
1481.1000, -72.849
1481.2000, -72.717
1481.3000, -72.393
1481.4000, -72.502
1481.5000, -72.438
1481.6000, -72.087
1481.7000, -72.347
1481.8000, -71.915
1481.9000, -72.419
1482.0000, -71.967
1482.1000, -71.851
1482.2000, -71.605
1482.3000, -71.453
1482.4000, -71.464
1482.5000, -71.144
1482.6000, -71.256
1482.7000, -71.313
1482.8000, -70.727
1482.9000, -71.167
1483.0000, -71.139
1483.1000, -70.848
1483.2000, -70.734
1483.3000, -70.879
1483.4000, -70.391
1483.5000, -70.326
1483.6000, -70.226
1483.7000, -70.766
1483.8000, -70.332
1483.9000, -70.093
1484.0000, -69.771
1484.1000, -70.126
1484.2000, -69.920
1484.3000, -69.954
1484.4000, -69.873
1484.5000, -69.781
1484.6000, -69.795
1484.7000, -69.501
1484.8000, -69.555
1484.9000, -69.611
1485.0000, -69.432
1485.1000, -69.430
1485.2000, -69.352
1485.3000, -69.357
1485.4000, -69.508
1485.5000, -69.345
1485.6000, -69.208
1485.7000, -69.125
1485.8000, -69.080
1485.9000, -69.078
1486.0000, -68.902
1486.1000, -68.856
1486.2000, -68.896
1486.3000, -68.889
1486.4000, -68.985
1486.5000, -68.707
1486.6000, -68.599
1486.7000, -68.894
1486.8000, -68.667
1486.9000, -68.455
1487.0000, -68.478
1487.1000, -68.410
1487.2000, -68.679
1487.3000, -68.369
1487.4000, -68.745
1487.5000, -68.516
1487.6000, -68.207
1487.7000, -68.453
1487.8000, -68.338
1487.9000, -68.161
1488.0000, -68.144
1488.1000, -68.489
1488.2000, -68.190
1488.3000, -68.138
1488.4000, -68.149
1488.5000, -68.274
1488.6000, -68.146
1488.7000, -68.130
1488.8000, -68.164
1488.9000, -68.052
1489.0000, -68.298
1489.1000, -68.217
1489.2000, -68.488
1489.3000, -68.224
1489.4000, -67.913
1489.5000, -68.320
1489.6000, -68.025
1489.7000, -68.192
1489.8000, -68.281
1489.9000, -68.259
1490.0000, -68.307
1490.1000, -68.054
1490.2000, -67.961
1490.3000, -68.138
1490.4000, -68.189
1490.5000, -68.318
1490.6000, -68.397
1490.7000, -68.298
1490.8000, -68.483
1490.9000, -68.242
1491.0000, -68.330
1491.1000, -68.230
1491.2000, -68.557
1491.3000, -68.248
1491.4000, -68.385
1491.5000, -68.396
1491.6000, -68.531
1491.7000, -68.242
1491.8000, -68.660
1491.9000, -68.530
1492.0000, -68.579
1492.1000, -68.613
1492.2000, -68.687
1492.3000, -68.501
1492.4000, -69.057
1492.5000, -68.627
1492.6000, -68.665
1492.7000, -68.693
1492.8000, -68.578
1492.9000, -68.754
1493.0000, -68.920
1493.1000, -68.895
1493.2000, -68.862
1493.3000, -69.143
1493.4000, -69.061
1493.5000, -68.943
1493.6000, -69.125
1493.7000, -69.309
1493.8000, -68.851
1493.9000, -69.324
1494.0000, -69.318
1494.1000, -69.288
1494.2000, -69.527
1494.3000, -69.488
1494.4000, -69.520
1494.5000, -69.472
1494.6000, -69.684
1494.7000, -69.864
1494.8000, -70.136
1494.9000, -70.025
1495.0000, -69.708
1495.1000, -69.961
1495.2000, -69.992
1495.3000, -69.975
1495.4000, -70.635
1495.5000, -70.444
1495.6000, -70.388
1495.7000, -70.346
1495.8000, -70.694
1495.9000, -70.476
1496.0000, -70.810
1496.1000, -70.556
1496.2000, -70.896
1496.3000, -70.631
1496.4000, -71.307
1496.5000, -71.125
1496.6000, -71.303
1496.7000, -71.444
1496.8000, -71.554
1496.9000, -71.851
1497.0000, -71.993
1497.1000, -71.891
1497.2000, -72.056
1497.3000, -72.025
1497.4000, -72.625
1497.5000, -71.962
1497.6000, -72.397
1497.7000, -72.892
1497.8000, -72.929
1497.9000, -72.464
1498.0000, -73.127
1498.1000, -72.983
1498.2000, -72.914
1498.3000, -73.355
1498.4000, -73.438
1498.5000, -73.579
1498.6000, -73.572
1498.7000, -74.046
1498.8000, -73.969
1498.9000, -74.015
1499.0000, -74.355
1499.1000, -74.527
1499.2000, -74.444
1499.3000, -74.364
1499.4000, -75.130
1499.5000, -74.960
1499.6000, -75.197
1499.7000, -75.139
1499.8000, -75.097
1499.9000, -75.533
1500.0000, -75.137
1500.1000, -76.302
1500.2000, -75.901
1500.3000, -75.599
1500.4000, -75.962
1500.5000, -76.324
1500.6000, -76.663
1500.7000, -75.813
1500.8000, -76.761
1500.9000, -77.184
1501.0000, -77.149
1501.1000, -76.862
1501.2000, -76.051
1501.3000, -77.120
1501.4000, -77.290
1501.5000, -77.268
1501.6000, -77.398
1501.7000, -77.940
1501.8000, -77.517
1501.9000, -79.554
1502.0000, -77.381
1502.1000, -76.569
1502.2000, -76.917
1502.3000, -77.061
1502.4000, -77.136
1502.5000, -77.857
1502.6000, -76.792
1502.7000, -76.700
1502.8000, -76.969
1502.9000, -77.516
1503.0000, -77.072
1503.1000, -76.286
1503.2000, -76.673
1503.3000, -77.073
1503.4000, -76.084
1503.5000, -76.491
1503.6000, -76.308
1503.7000, -75.502
1503.8000, -75.673
1503.9000, -74.922
1504.0000, -75.658
1504.1000, -75.275
1504.2000, -75.174
1504.3000, -75.004
1504.4000, -74.683
1504.5000, -74.837
1504.6000, -74.809
1504.7000, -73.888
1504.8000, -74.236
1504.9000, -73.993
1505.0000, -74.040
1505.1000, -73.887
1505.2000, -73.911
1505.3000, -73.741
1505.4000, -73.085
1505.5000, -73.132
1505.6000, -72.914
1505.7000, -72.996
1505.8000, -72.294
1505.9000, -72.214
1506.0000, -72.233
1506.1000, -72.027
1506.2000, -72.200
1506.3000, -71.710
1506.4000, -71.555
1506.5000, -71.591
1506.6000, -71.187
1506.7000, -71.022
1506.8000, -71.005
1506.9000, -70.761
1507.0000, -70.842
1507.1000, -70.635
1507.2000, -70.410
1507.3000, -70.423
1507.4000, -70.383
1507.5000, -70.139
1507.6000, -69.826
1507.7000, -70.050
1507.8000, -69.634
1507.9000, -69.526
1508.0000, -69.333
1508.1000, -69.552
1508.2000, -69.103
1508.3000, -69.154
1508.4000, -69.278
1508.5000, -68.872
1508.6000, -68.651
1508.7000, -68.831
1508.8000, -68.477
1508.9000, -68.504
1509.0000, -68.504
1509.1000, -68.105
1509.2000, -68.355
1509.3000, -68.136
1509.4000, -68.174
1509.5000, -68.092
1509.6000, -67.969
1509.7000, -67.793
1509.8000, -67.883
1509.9000, -67.659
1510.0000, -67.575
1510.1000, -67.557
1510.2000, -67.276
1510.3000, -67.413
1510.4000, -67.390
1510.5000, -67.346
1510.6000, -66.923
1510.7000, -67.117
1510.8000, -67.081
1510.9000, -66.718
1511.0000, -66.903
1511.1000, -66.455
1511.2000, -66.825
1511.3000, -66.519
1511.4000, -66.688
1511.5000, -66.546
1511.6000, -66.322
1511.7000, -66.543
1511.8000, -66.468
1511.9000, -66.319
1512.0000, -66.113
1512.1000, -66.050
1512.2000, -66.182
1512.3000, -66.025
1512.4000, -66.241
1512.5000, -66.092
1512.6000, -65.800
1512.7000, -65.971
1512.8000, -65.711
1512.9000, -65.894
1513.0000, -65.899
1513.1000, -65.624
1513.2000, -65.929
1513.3000, -65.702
1513.4000, -65.824
1513.5000, -65.588
1513.6000, -65.817
1513.7000, -65.510
1513.8000, -65.769
1513.9000, -65.453
1514.0000, -65.597
1514.1000, -65.464
1514.2000, -65.502
1514.3000, -65.340
1514.4000, -65.191
1514.5000, -65.334
1514.6000, -65.248
1514.7000, -65.161
1514.8000, -65.262
1514.9000, -65.356
1515.0000, -65.330
1515.1000, -65.294
1515.2000, -65.308
1515.3000, -65.287
1515.4000, -65.226
1515.5000, -65.046
1515.6000, -64.993
1515.7000, -65.302
1515.8000, -65.265
1515.9000, -65.165
1516.0000, -65.226
1516.1000, -65.274
1516.2000, -65.130
1516.3000, -65.322
1516.4000, -65.194
1516.5000, -65.045
1516.6000, -65.365
1516.7000, -65.097
1516.8000, -65.537
1516.9000, -65.159
1517.0000, -65.321
1517.1000, -65.246
1517.2000, -65.439
1517.3000, -65.207
1517.4000, -65.355
1517.5000, -65.469
1517.6000, -65.292
1517.7000, -65.258
1517.8000, -65.178
1517.9000, -65.460
1518.0000, -65.356
1518.1000, -65.453
1518.2000, -65.491
1518.3000, -65.432
1518.4000, -65.481
1518.5000, -65.627
1518.6000, -65.592
1518.7000, -65.409
1518.8000, -65.728
1518.9000, -65.644
1519.0000, -65.667
1519.1000, -65.774
1519.2000, -65.734
1519.3000, -65.819
1519.4000, -65.942
1519.5000, -65.843
1519.6000, -65.897
1519.7000, -65.983
1519.8000, -65.964
1519.9000, -66.155
1520.0000, -66.087
1520.1000, -66.049
1520.2000, -66.158
1520.3000, -66.262
1520.4000, -66.380
1520.5000, -66.341
1520.6000, -66.281
1520.7000, -66.436
1520.8000, -66.500
1520.9000, -66.675
1521.0000, -66.907
1521.1000, -66.606
1521.2000, -66.872
1521.3000, -67.035
1521.4000, -66.953
1521.5000, -67.172
1521.6000, -67.043
1521.7000, -67.041
1521.8000, -67.242
1521.9000, -67.309
1522.0000, -67.374
1522.1000, -67.380
1522.2000, -67.514
1522.3000, -67.612
1522.4000, -67.843
1522.5000, -67.923
1522.6000, -67.869
1522.7000, -67.997
1522.8000, -68.016
1522.9000, -68.283
1523.0000, -68.193
1523.1000, -68.388
1523.2000, -68.450
1523.3000, -68.833
1523.4000, -68.764
1523.5000, -68.644
1523.6000, -68.878
1523.7000, -69.173
1523.8000, -69.265
1523.9000, -69.104
1524.0000, -69.338
1524.1000, -69.539
1524.2000, -69.748
1524.3000, -69.785
1524.4000, -69.991
1524.5000, -69.954
1524.6000, -70.228
1524.7000, -70.086
1524.8000, -70.260
1524.9000, -70.488
1525.0000, -70.666
1525.1000, -70.991
1525.2000, -71.072
1525.3000, -70.976
1525.4000, -71.426
1525.5000, -71.388
1525.6000, -71.448
1525.7000, -71.750
1525.8000, -71.786
1525.9000, -72.075
1526.0000, -72.048
1526.1000, -72.149
1526.2000, -72.503
1526.3000, -72.784
1526.4000, -72.644
1526.5000, -72.899
1526.6000, -73.089
1526.7000, -73.402
1526.8000, -73.599
1526.9000, -73.446
1527.0000, -73.942
1527.1000, -73.849
1527.2000, -73.873
1527.3000, -74.005
1527.4000, -74.043
1527.5000, -74.299
1527.6000, -74.321
1527.7000, -74.515
1527.8000, -75.078
1527.9000, -74.692
1528.0000, -74.893
1528.1000, -74.942
1528.2000, -75.174
1528.3000, -74.514
1528.4000, -75.053
1528.5000, -75.816
1528.6000, -75.045
1528.7000, -75.338
1528.8000, -75.720
1528.9000, -75.147
1529.0000, -75.561
1529.1000, -75.259
1529.2000, -75.735
1529.3000, -75.362
1529.4000, -75.015
1529.5000, -74.786
1529.6000, -75.210
1529.7000, -75.046
1529.8000, -75.182
1529.9000, -74.296
1530.0000, -74.583
1530.1000, -74.758
1530.2000, -75.135
1530.3000, -73.917
1530.4000, -74.631
1530.5000, -73.906
1530.6000, -73.282
1530.7000, -74.116
1530.8000, -73.850
1530.9000, -72.760
1531.0000, -73.923
1531.1000, -73.034
1531.2000, -73.351
1531.3000, -72.655
1531.4000, -72.793
1531.5000, -72.494
1531.6000, -72.035
1531.7000, -72.775
1531.8000, -71.922
1531.9000, -71.794
1532.0000, -71.867
1532.1000, -71.583
1532.2000, -71.297
1532.3000, -71.166
1532.4000, -71.244
1532.5000, -70.630
1532.6000, -70.740
1532.7000, -70.712
1532.8000, -70.700
1532.9000, -70.489
1533.0000, -70.088
1533.1000, -70.057
1533.2000, -69.948
1533.3000, -69.818
1533.4000, -69.567
1533.5000, -69.665
1533.6000, -69.376
1533.7000, -69.527
1533.8000, -69.147
1533.9000, -68.976
1534.0000, -69.146
1534.1000, -68.864
1534.2000, -68.737
1534.3000, -68.684
1534.4000, -68.538
1534.5000, -68.400
1534.6000, -68.172
1534.7000, -68.223
1534.8000, -68.028
1534.9000, -67.983
1535.0000, -67.800
1535.1000, -67.642
1535.2000, -67.897
1535.3000, -67.679
1535.4000, -67.602
1535.5000, -67.367
1535.6000, -67.344
1535.7000, -67.211
1535.8000, -67.016
1535.9000, -67.151
1536.0000, -67.237
1536.1000, -66.896
1536.2000, -66.813
1536.3000, -66.548
1536.4000, -66.654
1536.5000, -66.427
1536.6000, -66.555
1536.7000, -66.238
1536.8000, -66.454
1536.9000, -66.284
1537.0000, -66.192
1537.1000, -66.270
1537.2000, -66.111
1537.3000, -66.137
1537.4000, -66.137
1537.5000, -65.961
1537.6000, -65.798
1537.7000, -66.012
1537.8000, -65.924
1537.9000, -65.739
1538.0000, -65.643
1538.1000, -65.831
1538.2000, -65.505
1538.3000, -65.575
1538.4000, -65.440
1538.5000, -65.324
1538.6000, -65.552
1538.7000, -65.460
1538.8000, -65.372
1538.9000, -65.217
1539.0000, -65.251
1539.1000, -65.236
1539.2000, -65.150
1539.3000, -65.110
1539.4000, -65.269
1539.5000, -65.092
1539.6000, -65.156
1539.7000, -64.955
1539.8000, -65.274
1539.9000, -64.811
1540.0000, -64.930
1540.1000, -64.980
1540.2000, -64.957
1540.3000, -64.985
1540.4000, -64.903
1540.5000, -64.830
1540.6000, -64.912
1540.7000, -64.935
1540.8000, -64.886
1540.9000, -64.949
1541.0000, -64.967
1541.1000, -64.719
1541.2000, -64.848
1541.3000, -64.713
1541.4000, -64.874
1541.5000, -64.788
1541.6000, -64.727
1541.7000, -64.628
1541.8000, -64.612
1541.9000, -64.747
1542.0000, -64.883
1542.1000, -64.726
1542.2000, -64.609
1542.3000, -64.718
1542.4000, -64.435
1542.5000, -64.620
1542.6000, -64.700
1542.7000, -64.635
1542.8000, -64.678
1542.9000, -64.796
1543.0000, -64.587
1543.1000, -64.808
1543.2000, -64.773
1543.3000, -64.802
1543.4000, -64.634
1543.5000, -64.659
1543.6000, -64.690
1543.7000, -64.737
1543.8000, -64.735
1543.9000, -64.822
1544.0000, -64.924
1544.1000, -64.890
1544.2000, -64.941
1544.3000, -64.972
1544.4000, -65.018
1544.5000, -64.934
1544.6000, -64.947
1544.7000, -65.188
1544.8000, -65.149
1544.9000, -65.150
1545.0000, -65.062
1545.1000, -65.331
1545.2000, -65.169
1545.3000, -65.126
1545.4000, -65.119
1545.5000, -65.208
1545.6000, -65.227
1545.7000, -65.476
1545.8000, -65.480
1545.9000, -65.564
1546.0000, -65.579
1546.1000, -65.383
1546.2000, -65.560
1546.3000, -65.561
1546.4000, -65.547
1546.5000, -65.535
1546.6000, -65.690
1546.7000, -65.682
1546.8000, -65.755
1546.9000, -65.970
1547.0000, -66.003
1547.1000, -65.986
1547.2000, -66.117
1547.3000, -66.124
1547.4000, -66.124
1547.5000, -65.979
1547.6000, -66.310
1547.7000, -66.431
1547.8000, -66.314
1547.9000, -66.315
1548.0000, -66.692
1548.1000, -66.699
1548.2000, -66.830
1548.3000, -66.860
1548.4000, -66.602
1548.5000, -66.689
1548.6000, -66.815
1548.7000, -66.974
1548.8000, -67.092
1548.9000, -67.173
1549.0000, -67.258
1549.1000, -67.416
1549.2000, -67.368
1549.3000, -67.547
1549.4000, -67.715
1549.5000, -67.507
1549.6000, -67.765
1549.7000, -67.716
1549.8000, -68.027
1549.9000, -68.007
1550.0000, -68.204
1550.1000, -68.109
1550.2000, -68.309
1550.3000, -68.585
1550.4000, -68.598
1550.5000, -68.563
1550.6000, -68.598
1550.7000, -68.776
1550.8000, -69.021
1550.9000, -69.016
1551.0000, -69.025
1551.1000, -69.231
1551.2000, -69.545
1551.3000, -69.584
1551.4000, -69.537
1551.5000, -69.867
1551.6000, -69.747
1551.7000, -70.128
1551.8000, -70.209
1551.9000, -70.006
1552.0000, -70.321
1552.1000, -70.593
1552.2000, -70.758
1552.3000, -70.736
1552.4000, -71.063
1552.5000, -71.060
1552.6000, -70.783
1552.7000, -71.470
1552.8000, -71.636
1552.9000, -71.407
1553.0000, -72.060
1553.1000, -71.842
1553.2000, -72.182
1553.3000, -72.236
1553.4000, -72.276
1553.5000, -72.429
1553.6000, -73.004
1553.7000, -72.853
1553.8000, -73.240
1553.9000, -73.605
1554.0000, -73.371
1554.1000, -73.844
1554.2000, -73.704
1554.3000, -73.807
1554.4000, -73.869
1554.5000, -73.946
1554.6000, -74.314
1554.7000, -74.553
1554.8000, -74.357
1554.9000, -74.760
1555.0000, -74.302
1555.1000, -75.314
1555.2000, -74.919
1555.3000, -75.197
1555.4000, -75.866
1555.5000, -75.527
1555.6000, -75.088
1555.7000, -76.250
1555.8000, -76.064
1555.9000, -75.801
1556.0000, -75.999
1556.1000, -75.996
1556.2000, -75.610
1556.3000, -75.663
1556.4000, -76.779
1556.5000, -76.355
1556.6000, -76.031
1556.7000, -76.842
1556.8000, -76.579
1556.9000, -76.341
1557.0000, -76.212
1557.1000, -76.249
1557.2000, -75.403
1557.3000, -75.643
1557.4000, -76.078
1557.5000, -76.243
1557.6000, -75.952
1557.7000, -76.028
1557.8000, -75.122
1557.9000, -75.357
1558.0000, -75.533
1558.1000, -75.269
1558.2000, -74.930
1558.3000, -74.520
1558.4000, -75.203
1558.5000, -74.434
1558.6000, -74.468
1558.7000, -74.124
1558.8000, -74.241
1558.9000, -74.471
1559.0000, -73.811
1559.1000, -74.032
1559.2000, -73.447
1559.3000, -73.497
1559.4000, -73.383
1559.5000, -73.481
1559.6000, -73.231
1559.7000, -72.966
1559.8000, -72.596
1559.9000, -72.818
1560.0000, -72.731
1560.1000, -72.410
1560.2000, -71.971
1560.3000, -72.283
1560.4000, -71.953
1560.5000, -71.996
1560.6000, -71.582
1560.7000, -71.910
1560.8000, -71.441
1560.9000, -71.453
1561.0000, -71.260
1561.1000, -70.782
1561.2000, -71.139
1561.3000, -71.186
1561.4000, -70.973
1561.5000, -70.606
1561.6000, -70.389
1561.7000, -70.332
1561.8000, -70.281
1561.9000, -70.433
1562.0000, -69.966
1562.1000, -69.743
1562.2000, -70.001
1562.3000, -69.838
1562.4000, -69.826
1562.5000, -69.442
1562.6000, -69.533
1562.7000, -69.245
1562.8000, -69.048
1562.9000, -69.179
1563.0000, -68.997
1563.1000, -69.122
1563.2000, -68.909
1563.3000, -68.949
1563.4000, -68.678
1563.5000, -68.863
1563.6000, -68.473
1563.7000, -68.356
1563.8000, -68.555
1563.9000, -68.398
1564.0000, -68.127
1564.1000, -68.107
1564.2000, -68.006
1564.3000, -67.908
1564.4000, -67.857
1564.5000, -67.819
1564.6000, -67.782
1564.7000, -67.873
1564.8000, -67.826
1564.9000, -67.542
1565.0000, -67.594
1565.1000, -67.583
1565.2000, -67.578
1565.3000, -67.300
1565.4000, -67.342
1565.5000, -67.276
1565.6000, -67.155
1565.7000, -66.972
1565.8000, -67.184
1565.9000, -67.264
1566.0000, -67.326
1566.1000, -66.894
1566.2000, -66.894
1566.3000, -67.080
1566.4000, -66.894
1566.5000, -66.657
1566.6000, -66.775
1566.7000, -66.888
1566.8000, -66.713
1566.9000, -66.776
1567.0000, -66.504
1567.1000, -66.593
1567.2000, -66.437
1567.3000, -66.602
1567.4000, -66.490
1567.5000, -66.625
1567.6000, -66.486
1567.7000, -66.404
1567.8000, -66.471
1567.9000, -66.189
1568.0000, -66.327
1568.1000, -66.232
1568.2000, -66.277
1568.3000, -66.320
1568.4000, -66.387
1568.5000, -66.096
1568.6000, -66.310
1568.7000, -66.135
1568.8000, -66.126
1568.9000, -66.194
1569.0000, -66.119
1569.1000, -65.947
1569.2000, -66.125
1569.3000, -66.085
1569.4000, -66.288
1569.5000, -65.983
1569.6000, -66.157
1569.7000, -66.315
1569.8000, -65.917
1569.9000, -65.961
1570.0000, -66.211
1570.1000, -66.107
1570.2000, -65.848
1570.3000, -66.067
1570.4000, -66.084
1570.5000, -65.953
1570.6000, -66.101
1570.7000, -66.118
1570.8000, -66.017
1570.9000, -66.054
1571.0000, -66.107
1571.1000, -66.078
1571.2000, -65.955
1571.3000, -66.090
1571.4000, -66.121
1571.5000, -66.180
1571.6000, -66.037
1571.7000, -66.190
1571.8000, -66.089
1571.9000, -66.198
1572.0000, -66.212
1572.1000, -66.423
1572.2000, -66.259
1572.3000, -66.271
1572.4000, -66.225
1572.5000, -66.394
1572.6000, -66.366
1572.7000, -66.192
1572.8000, -66.411
1572.9000, -66.314
1573.0000, -66.438
1573.1000, -66.437
1573.2000, -66.508
1573.3000, -66.566
1573.4000, -66.524
1573.5000, -66.462
1573.6000, -66.691
1573.7000, -66.862
1573.8000, -66.714
1573.9000, -66.675
1574.0000, -66.681
1574.1000, -66.877
1574.2000, -66.793
1574.3000, -66.989
1574.4000, -66.719
1574.5000, -67.120
1574.6000, -66.867
1574.7000, -67.177
1574.8000, -66.991
1574.9000, -66.987
1575.0000, -67.213
1575.1000, -67.043
1575.2000, -67.381
1575.3000, -67.247
1575.4000, -67.313
1575.5000, -67.547
1575.6000, -67.495
1575.7000, -67.664
1575.8000, -67.725
1575.9000, -67.469
1576.0000, -67.807
1576.1000, -67.495
1576.2000, -67.974
1576.3000, -68.002
1576.4000, -68.092
1576.5000, -68.119
1576.6000, -68.243
1576.7000, -68.120
1576.8000, -68.338
1576.9000, -68.169
1577.0000, -68.360
1577.1000, -68.470
1577.2000, -68.503
1577.3000, -68.594
1577.4000, -68.636
1577.5000, -68.826
1577.6000, -68.771
1577.7000, -68.861
1577.8000, -69.261
1577.9000, -69.093
1578.0000, -69.395
1578.1000, -69.303
1578.2000, -69.431
1578.3000, -69.328
1578.4000, -69.312
1578.5000, -69.393
1578.6000, -69.965
1578.7000, -69.715
1578.8000, -69.731
1578.9000, -70.149
1579.0000, -70.159
1579.1000, -69.962
1579.2000, -70.643
1579.3000, -70.282
1579.4000, -70.611
1579.5000, -70.821
1579.6000, -70.732
1579.7000, -71.223
1579.8000, -71.543
1579.9000, -71.016
1580.0000, -71.559
1580.1000, -71.486
1580.2000, -71.503
1580.3000, -71.801
1580.4000, -71.564
1580.5000, -72.009
1580.6000, -71.924
1580.7000, -72.005
1580.8000, -71.969
1580.9000, -72.550
1581.0000, -72.541
1581.1000, -72.453
1581.2000, -73.114
1581.3000, -73.278
1581.4000, -73.272
1581.5000, -73.430
1581.6000, -73.337
1581.7000, -74.058
1581.8000, -73.451
1581.9000, -73.570
1582.0000, -73.935
1582.1000, -74.406
1582.2000, -73.799
1582.3000, -74.213
1582.4000, -74.607
1582.5000, -74.500
1582.6000, -74.613
1582.7000, -74.878
1582.8000, -75.368
1582.9000, -74.686
1583.0000, -75.211
1583.1000, -76.091
1583.2000, -75.852
1583.3000, -75.544
1583.4000, -75.754
1583.5000, -76.377
1583.6000, -76.115
1583.7000, -76.194
1583.8000, -76.827
1583.9000, -76.362
1584.0000, -76.875
1584.1000, -76.744
1584.2000, -77.223
1584.3000, -76.211
1584.4000, -77.052
1584.5000, -76.781
1584.6000, -77.731
1584.7000, -76.646
1584.8000, -78.137
1584.9000, -77.001
1585.0000, -77.581
1585.1000, -77.889
1585.2000, -77.731
1585.3000, -78.839
1585.4000, -77.680
1585.5000, -78.646
1585.6000, -77.749
1585.7000, -78.405
1585.8000, -78.201
1585.9000, -76.970
1586.0000, -78.265
1586.1000, -77.465
1586.2000, -78.182
1586.3000, -76.470
1586.4000, -77.105
1586.5000, -77.818
1586.6000, -77.427
1586.7000, -77.021
1586.8000, -77.215
1586.9000, -76.963
1587.0000, -76.937
1587.1000, -76.349
1587.2000, -76.289
1587.3000, -77.359
1587.4000, -75.738
1587.5000, -76.100
1587.6000, -75.744
1587.7000, -75.965
1587.8000, -75.572
1587.9000, -75.701
1588.0000, -75.441
1588.1000, -75.158
1588.2000, -75.044
1588.3000, -75.103
1588.4000, -74.983
1588.5000, -74.827
1588.6000, -74.552
1588.7000, -74.299
1588.8000, -74.013
1588.9000, -74.533
1589.0000, -74.137
1589.1000, -74.278
1589.2000, -73.862
1589.3000, -73.992
1589.4000, -73.952
1589.5000, -73.418
1589.6000, -73.335
1589.7000, -73.254
1589.8000, -73.440
1589.9000, -73.016
1590.0000, -73.141
1590.1000, -72.984
1590.2000, -73.069
1590.3000, -72.456
1590.4000, -72.610
1590.5000, -72.239
1590.6000, -72.792
1590.7000, -72.154
1590.8000, -72.015
1590.9000, -72.038
1591.0000, -71.917
1591.1000, -71.863
1591.2000, -71.840
1591.3000, -71.990
1591.4000, -71.762
1591.5000, -71.515
1591.6000, -71.290
1591.7000, -71.303
1591.8000, -71.198
1591.9000, -71.484
1592.0000, -70.931
1592.1000, -71.147
1592.2000, -71.350
1592.3000, -70.744
1592.4000, -70.872
1592.5000, -70.687
1592.6000, -70.574
1592.7000, -70.535
1592.8000, -70.450
1592.9000, -70.685
1593.0000, -70.142
1593.1000, -70.180
1593.2000, -70.042
1593.3000, -70.051
1593.4000, -69.976
1593.5000, -70.313
1593.6000, -69.708
1593.7000, -69.888
1593.8000, -69.747
1593.9000, -69.561
1594.0000, -69.809
1594.1000, -69.589
1594.2000, -69.674
1594.3000, -69.257
1594.4000, -69.302
1594.5000, -69.300
1594.6000, -69.179
1594.7000, -69.105
1594.8000, -69.235
1594.9000, -69.256
1595.0000, -68.969
1595.1000, -69.260
1595.2000, -69.003
1595.3000, -68.680
1595.4000, -69.070
1595.5000, -69.068
1595.6000, -69.003
1595.7000, -68.923
1595.8000, -68.540
1595.9000, -68.826
1596.0000, -68.844
1596.1000, -68.500
1596.2000, -68.551
1596.3000, -68.588
1596.4000, -68.425
1596.5000, -68.436
1596.6000, -68.444
1596.7000, -68.324
1596.8000, -68.412
1596.9000, -68.252
1597.0000, -68.286
1597.1000, -68.359
1597.2000, -68.282
1597.3000, -68.246
1597.4000, -68.369
1597.5000, -68.172
1597.6000, -68.394
1597.7000, -68.431
1597.8000, -68.191
1597.9000, -68.246
1598.0000, -68.095
1598.1000, -68.106
1598.2000, -68.104
1598.3000, -67.868
1598.4000, -68.127
1598.5000, -67.947
1598.6000, -68.027
1598.7000, -68.037
1598.8000, -67.948
1598.9000, -67.818
1599.0000, -67.869
1599.1000, -67.919
1599.2000, -67.738
1599.3000, -68.079
1599.4000, -67.912
1599.5000, -67.969
1599.6000, -67.935
1599.7000, -67.867
1599.8000, -67.588
1599.9000, -67.905
1600.0000, -68.018
1600.1000, -67.802
1600.2000, -67.839
1600.3000, -68.041
1600.4000, -68.079
1600.5000, -67.715
1600.6000, -68.237
1600.7000, -67.942
1600.8000, -67.687
1600.9000, -67.855
1601.0000, -67.958
1601.1000, -67.812
1601.2000, -67.910
1601.3000, -67.873
1601.4000, -67.846
1601.5000, -67.925
1601.6000, -67.909
1601.7000, -67.890
1601.8000, -67.909
1601.9000, -68.009
1602.0000, -67.817
1602.1000, -68.074
1602.2000, -68.008
1602.3000, -68.081
1602.4000, -67.952
1602.5000, -68.448
1602.6000, -68.134
1602.7000, -68.050
1602.8000, -68.256
1602.9000, -68.426
1603.0000, -68.477
1603.1000, -68.333
1603.2000, -68.322
1603.3000, -68.376
1603.4000, -68.505
1603.5000, -68.523
1603.6000, -68.680
1603.7000, -68.803
1603.8000, -68.582
1603.9000, -68.812
1604.0000, -68.378
1604.1000, -68.766
1604.2000, -68.636
1604.3000, -68.876
1604.4000, -68.810
1604.5000, -69.061
1604.6000, -68.912
1604.7000, -68.953
1604.8000, -68.961
1604.9000, -69.137
1605.0000, -69.013
1605.1000, -69.293
1605.2000, -69.271
1605.3000, -69.373
1605.4000, -69.416
1605.5000, -69.520
1605.6000, -68.995
1605.7000, -69.355
1605.8000, -69.488
1605.9000, -69.563
1606.0000, -69.614
1606.1000, -69.540
1606.2000, -69.633
1606.3000, -69.814
1606.4000, -69.929
1606.5000, -69.985
1606.6000, -70.098
1606.7000, -70.189
1606.8000, -70.032
1606.9000, -70.107
1607.0000, -70.271
1607.1000, -70.240
1607.2000, -70.364
1607.3000, -70.479
1607.4000, -70.488
1607.5000, -71.007
1607.6000, -70.972
1607.7000, -70.901
1607.8000, -70.965
1607.9000, -71.095
1608.0000, -71.041
1608.1000, -71.277
1608.2000, -71.185
1608.3000, -71.312
1608.4000, -71.403
1608.5000, -71.471
1608.6000, -71.852
1608.7000, -71.618
1608.8000, -71.765
1608.9000, -71.601
1609.0000, -72.249
1609.1000, -71.710
1609.2000, -72.318
1609.3000, -72.558
1609.4000, -72.603
1609.5000, -72.544
1609.6000, -72.307
1609.7000, -72.794
1609.8000, -72.846
1609.9000, -72.682
1610.0000, -73.005
1610.1000, -73.061
1610.2000, -72.746
1610.3000, -73.491
1610.4000, -73.124
1610.5000, -73.498
1610.6000, -73.292
1610.7000, -73.562
1610.8000, -73.525
1610.9000, -74.099
1611.0000, -74.280
1611.1000, -73.981
1611.2000, -73.432
1611.3000, -74.405
1611.4000, -74.244
1611.5000, -74.318
1611.6000, -75.297
1611.7000, -75.191
1611.8000, -74.804
1611.9000, -74.672
1612.0000, -74.660
1612.1000, -75.502
1612.2000, -74.948
1612.3000, -75.903
1612.4000, -76.417
1612.5000, -75.210
1612.6000, -76.015
1612.7000, -76.753
1612.8000, -75.780
1612.9000, -75.921
1613.0000, -77.472
1613.1000, -76.240
1613.2000, -76.082
1613.3000, -77.224
1613.4000, -77.513
1613.5000, -78.627
1613.6000, -77.207
1613.7000, -76.115
1613.8000, -77.684
1613.9000, -78.706
1614.0000, -77.753
1614.1000, -77.420
1614.2000, -77.484
1614.3000, -78.336
1614.4000, -77.628
1614.5000, -79.039
1614.6000, -77.825
1614.7000, -78.200
1614.8000, -78.756
1614.9000, -79.155
1615.0000, -79.143
1615.1000, -77.427
1615.2000, -79.198
1615.3000, -79.441
1615.4000, -78.270
1615.5000, -79.597
1615.6000, -78.022
1615.7000, -77.749
1615.8000, -79.084
1615.9000, -79.165
1616.0000, -78.200
1616.1000, -77.252
1616.2000, -78.801
1616.3000, -78.883
1616.4000, -77.946
1616.5000, -77.488
1616.6000, -77.719
1616.7000, -77.088
1616.8000, -78.356
1616.9000, -76.511
1617.0000, -78.427
1617.1000, -77.290
1617.2000, -77.742
1617.3000, -78.149
1617.4000, -77.868
1617.5000, -77.313
1617.6000, -77.060
1617.7000, -76.284
1617.8000, -77.023
1617.9000, -77.252
1618.0000, -76.036
1618.1000, -77.044
1618.2000, -76.241
1618.3000, -75.740
1618.4000, -76.335
1618.5000, -76.625
1618.6000, -75.622
1618.7000, -75.323
1618.8000, -75.312
1618.9000, -75.301
1619.0000, -74.813
1619.1000, -74.945
1619.2000, -75.122
1619.3000, -74.902
1619.4000, -74.854
1619.5000, -74.742
1619.6000, -74.255
1619.7000, -73.355
1619.8000, -74.630
1619.9000, -74.488
1620.0000, -74.450
1620.1000, -73.603
1620.2000, -73.372
1620.3000, -73.734
1620.4000, -73.770
1620.5000, -73.426
1620.6000, -73.261
1620.7000, -72.973
1620.8000, -73.075
1620.9000, -73.042
1621.0000, -72.832
1621.1000, -72.837
1621.2000, -72.527
1621.3000, -72.516
1621.4000, -72.604
1621.5000, -72.427
1621.6000, -72.623
1621.7000, -72.421
1621.8000, -72.732
1621.9000, -72.613
1622.0000, -72.343
1622.1000, -72.096
1622.2000, -71.949
1622.3000, -71.776
1622.4000, -71.946
1622.5000, -72.275
1622.6000, -72.242
1622.7000, -71.851
1622.8000, -71.827
1622.9000, -71.616
1623.0000, -71.657
1623.1000, -71.984
1623.2000, -71.324
1623.3000, -71.517
1623.4000, -71.436
1623.5000, -71.504
1623.6000, -71.179
1623.7000, -71.374
1623.8000, -71.281
1623.9000, -71.268
1624.0000, -71.176
1624.1000, -71.059
1624.2000, -71.135
1624.3000, -70.941
1624.4000, -71.056
1624.5000, -71.045
1624.6000, -70.615
1624.7000, -70.363
1624.8000, -70.747
1624.9000, -70.999
1625.0000, -70.532
1625.1000, -70.457
1625.2000, -70.886
1625.3000, -70.856
1625.4000, -71.011
1625.5000, -70.545
1625.6000, -70.267
1625.7000, -70.385
1625.8000, -70.413
1625.9000, -70.336
1626.0000, -70.289
1626.1000, -70.705
1626.2000, -70.262
1626.3000, -70.399
1626.4000, -69.606
1626.5000, -70.356
1626.6000, -70.092
1626.7000, -70.247
1626.8000, -70.421
1626.9000, -69.926
1627.0000, -70.099
1627.1000, -69.924
1627.2000, -70.025
1627.3000, -69.903
1627.4000, -70.063
1627.5000, -70.068
1627.6000, -70.221
1627.7000, -69.733
1627.8000, -69.729
1627.9000, -70.030
1628.0000, -69.968
1628.1000, -69.596
1628.2000, -70.073
1628.3000, -70.006
1628.4000, -70.111
1628.5000, -69.604
1628.6000, -69.768
1628.7000, -69.769
1628.8000, -69.827
1628.9000, -69.820
1629.0000, -69.674
1629.1000, -69.885
1629.2000, -69.753
1629.3000, -69.684
1629.4000, -69.371
1629.5000, -69.728
1629.6000, -69.610
1629.7000, -69.452
1629.8000, -69.829
1629.9000, -69.494
1630.0000, -69.663
1630.1000, -69.605
1630.2000, -69.548
1630.3000, -69.177
1630.4000, -69.526
1630.5000, -69.847
1630.6000, -69.727
1630.7000, -69.313
1630.8000, -69.510
1630.9000, -69.547
1631.0000, -69.685
1631.1000, -69.977
1631.2000, -69.358
1631.3000, -69.521
1631.4000, -69.648
1631.5000, -69.799
1631.6000, -69.459
1631.7000, -69.833
1631.8000, -69.511
1631.9000, -69.593
1632.0000, -69.555
1632.1000, -69.612
1632.2000, -69.900
1632.3000, -69.644
1632.4000, -69.659
1632.5000, -69.835
1632.6000, -69.717
1632.7000, -69.972
1632.8000, -69.991
1632.9000, -69.763
1633.0000, -69.487
1633.1000, -70.125
1633.2000, -70.188
1633.3000, -70.169
1633.4000, -70.390
1633.5000, -69.722
1633.6000, -69.857
1633.7000, -69.952
1633.8000, -70.508
1633.9000, -70.196
1634.0000, -70.559
1634.1000, -70.310
1634.2000, -70.407
1634.3000, -69.421
1634.4000, -70.775
1634.5000, -70.474
1634.6000, -70.090
1634.7000, -70.948
1634.8000, -70.435
1634.9000, -70.553
1635.0000, -70.359
1635.1000, -70.688
1635.2000, -70.651
1635.3000, -70.478
1635.4000, -70.680
1635.5000, -70.955
1635.6000, -70.526
1635.7000, -70.985
1635.8000, -70.685
1635.9000, -71.332
1636.0000, -70.766
1636.1000, -70.687
1636.2000, -71.070
1636.3000, -71.546
1636.4000, -71.346
1636.5000, -70.649
1636.6000, -71.251
1636.7000, -71.155
1636.8000, -70.852
1636.9000, -71.043
1637.0000, -71.417
1637.1000, -71.025
1637.2000, -71.553
1637.3000, -71.450
1637.4000, -71.537
1637.5000, -71.973
1637.6000, -70.873
1637.7000, -71.750
1637.8000, -72.051
1637.9000, -72.133
1638.0000, -71.399
1638.1000, -72.326
1638.2000, -71.315
1638.3000, -72.076
1638.4000, -72.656
1638.5000, -72.051
1638.6000, -72.827
1638.7000, -72.120
1638.8000, -72.809
1638.9000, -72.360
1639.0000, -72.488
1639.1000, -72.749
1639.2000, -72.259
1639.3000, -72.459
1639.4000, -73.291
1639.5000, -72.598
1639.6000, -72.911
1639.7000, -72.934
1639.8000, -72.857
1639.9000, -73.831
1640.0000, -73.401
1640.1000, -72.446
1640.2000, -74.337
1640.3000, -73.210
1640.4000, -73.901
1640.5000, -74.261
1640.6000, -74.219
1640.7000, -74.022
1640.8000, -73.858
1640.9000, -74.159
1641.0000, -73.516
1641.1000, -74.462
1641.2000, -74.356
1641.3000, -74.210
1641.4000, -76.608
1641.5000, -73.140
1641.6000, -75.074
1641.7000, -75.728
1641.8000, -75.550
1641.9000, -74.510
1642.0000, -74.705
1642.1000, -76.471
1642.2000, -75.510
1642.3000, -74.573
1642.4000, -76.034
1642.5000, -75.674
1642.6000, -76.388
1642.7000, -74.394
1642.8000, -78.376
1642.9000, -75.963
1643.0000, -76.829
1643.1000, -76.573
1643.2000, -75.932
1643.3000, -78.235
1643.4000, -77.882
1643.5000, -76.955
1643.6000, -76.457
1643.7000, -76.345
1643.8000, -77.996
1643.9000, -75.781
1644.0000, -75.175
1644.1000, -78.569
1644.2000, -75.181
1644.3000, -78.547
1644.4000, -79.101
1644.5000, -75.930
1644.6000, -76.140
1644.7000, -77.673
1644.8000, -80.132
1644.9000, -76.689
1645.0000, -77.617
1645.1000, -78.826
1645.2000, -76.756
1645.3000, -80.323
1645.4000, -76.189
1645.5000, -76.703
1645.6000, -76.578
1645.7000, -77.234
1645.8000, -79.490
1645.9000, -77.554
1646.0000, -77.939
1646.1000, -84.363
1646.2000, -76.584
1646.3000, -78.518
1646.4000, -76.494
1646.5000, -77.359
1646.6000, -77.582
1646.7000, -77.173
1646.8000, -87.935
1646.9000, -77.407
1647.0000, -79.585
1647.1000, -76.053
1647.2000, -80.345
1647.3000, -76.076
1647.4000, -87.058
1647.5000, -74.511
1647.6000, -78.545
1647.7000, -78.058
1647.8000, -75.515
1647.9000, -78.271
1648.0000, -75.167
1648.1000, -76.170
1648.2000, -75.331
1648.3000, -79.535
1648.4000, -76.702
1648.5000, -76.727
1648.6000, -75.990
1648.7000, -76.231
1648.8000, -79.167
1648.9000, -75.709
1649.0000, -74.895
1649.1000, -78.854
1649.2000, -75.246
1649.3000, -74.456
1649.4000, -77.513
1649.5000, -73.791
1649.6000, -76.205
1649.7000, -77.315
1649.8000, -76.818
1649.9000, -75.008
1650.0000, -75.708
