70BCSV 	
// AQ6370B OPTICAL SPECTRUM ANALYZER //                 
25
"CTRWL",1350.000000
"SPAN", 100.000000
"START WL",1300.000000
"STOP WL",1400.000000
"WLFREQ", 0
"REFL",-47.3
"LSCL", 5.0
"RESLN",0.100
"AVG",   1
"SMPLAUTO",      0
"SMPL",       5001
"SMPLINTVL",0.0200
"HIGH2"
"MEAS"
"LSUNT",0
"NMSKH","OFF"
"RESCOR",0
"RESPARM", 9050
"FREQPARM", 9050






"[TRACE DATA]"
1300.0000, -66.633
1300.0200, -66.558
1300.0400, -66.551
1300.0600, -66.543
1300.0800, -66.587
1300.1000, -66.605
1300.1200, -66.576
1300.1400, -66.683
1300.1600, -66.644
1300.1800, -66.706
1300.2000, -66.659
1300.2200, -66.761
1300.2400, -66.726
1300.2600, -66.817
1300.2800, -66.856
1300.3000, -67.002
1300.3200, -67.038
1300.3400, -67.039
1300.3600, -67.137
1300.3800, -67.064
1300.4000, -67.119
1300.4200, -67.243
1300.4400, -67.313
1300.4600, -67.308
1300.4800, -67.337
1300.5000, -67.388
1300.5200, -67.457
1300.5400, -67.498
1300.5600, -67.445
1300.5800, -67.430
1300.6000, -67.443
1300.6200, -67.456
1300.6400, -67.418
1300.6600, -67.550
1300.6800, -67.461
1300.7000, -67.438
1300.7200, -67.463
1300.7400, -67.427
1300.7600, -67.417
1300.7800, -67.349
1300.8000, -67.256
1300.8200, -67.226
1300.8400, -67.360
1300.8600, -67.214
1300.8800, -67.169
1300.9000, -67.271
1300.9200, -67.214
1300.9400, -67.219
1300.9600, -67.116
1300.9800, -67.215
1301.0000, -67.225
1301.0200, -67.145
1301.0400, -67.253
1301.0600, -67.302
1301.0800, -67.228
1301.1000, -67.351
1301.1200, -67.372
1301.1400, -67.488
1301.1600, -67.468
1301.1800, -67.469
1301.2000, -67.606
1301.2200, -67.633
1301.2400, -67.721
1301.2600, -67.707
1301.2800, -67.869
1301.3000, -67.937
1301.3200, -68.051
1301.3400, -68.126
1301.3600, -68.084
1301.3800, -68.104
1301.4000, -68.305
1301.4200, -68.326
1301.4400, -68.341
1301.4600, -68.460
1301.4800, -68.418
1301.5000, -68.374
1301.5200, -68.430
1301.5400, -68.459
1301.5600, -68.524
1301.5800, -68.464
1301.6000, -68.507
1301.6200, -68.449
1301.6400, -68.353
1301.6600, -68.415
1301.6800, -68.348
1301.7000, -68.299
1301.7200, -68.260
1301.7400, -68.193
1301.7600, -68.172
1301.7800, -68.168
1301.8000, -68.203
1301.8200, -68.186
1301.8400, -68.254
1301.8600, -68.157
1301.8800, -68.151
1301.9000, -68.199
1301.9200, -68.171
1301.9400, -68.139
1301.9600, -68.226
1301.9800, -68.072
1302.0000, -68.235
1302.0200, -68.183
1302.0400, -68.248
1302.0600, -68.450
1302.0800, -68.339
1302.1000, -68.472
1302.1200, -68.530
1302.1400, -68.714
1302.1600, -68.718
1302.1800, -68.786
1302.2000, -68.868
1302.2200, -68.849
1302.2400, -69.033
1302.2600, -69.091
1302.2800, -69.064
1302.3000, -69.171
1302.3200, -69.247
1302.3400, -69.368
1302.3600, -69.335
1302.3800, -69.335
1302.4000, -69.446
1302.4200, -69.355
1302.4400, -69.535
1302.4600, -69.496
1302.4800, -69.497
1302.5000, -69.516
1302.5200, -69.541
1302.5400, -69.412
1302.5600, -69.458
1302.5800, -69.469
1302.6000, -69.457
1302.6200, -69.343
1302.6400, -69.339
1302.6600, -69.229
1302.6800, -69.184
1302.7000, -69.272
1302.7200, -69.250
1302.7400, -69.222
1302.7600, -69.151
1302.7800, -69.135
1302.8000, -69.037
1302.8200, -69.050
1302.8400, -68.999
1302.8600, -69.144
1302.8800, -69.104
1302.9000, -69.118
1302.9200, -69.150
1302.9400, -69.143
1302.9600, -69.089
1302.9800, -69.098
1303.0000, -69.186
1303.0200, -69.317
1303.0400, -69.377
1303.0600, -69.376
1303.0800, -69.368
1303.1000, -69.505
1303.1200, -69.474
1303.1400, -69.566
1303.1600, -69.644
1303.1800, -69.728
1303.2000, -69.781
1303.2200, -69.769
1303.2400, -69.849
1303.2600, -69.926
1303.2800, -69.943
1303.3000, -69.969
1303.3200, -70.014
1303.3400, -70.051
1303.3600, -69.952
1303.3800, -69.949
1303.4000, -70.026
1303.4200, -70.101
1303.4400, -69.869
1303.4600, -69.963
1303.4800, -69.999
1303.5000, -69.862
1303.5200, -69.780
1303.5400, -69.763
1303.5600, -69.731
1303.5800, -69.673
1303.6000, -69.577
1303.6200, -69.459
1303.6400, -69.432
1303.6600, -69.423
1303.6800, -69.342
1303.7000, -69.304
1303.7200, -69.205
1303.7400, -69.252
1303.7600, -69.148
1303.7800, -69.088
1303.8000, -69.093
1303.8200, -69.105
1303.8400, -69.087
1303.8600, -69.020
1303.8800, -69.061
1303.9000, -69.056
1303.9200, -69.064
1303.9400, -69.139
1303.9600, -69.151
1303.9800, -69.131
1304.0000, -69.179
1304.0200, -69.262
1304.0400, -69.324
1304.0600, -69.333
1304.0800, -69.377
1304.1000, -69.319
1304.1200, -69.430
1304.1400, -69.458
1304.1600, -69.435
1304.1800, -69.516
1304.2000, -69.524
1304.2200, -69.448
1304.2400, -69.487
1304.2600, -69.505
1304.2800, -69.468
1304.3000, -69.553
1304.3200, -69.587
1304.3400, -69.550
1304.3600, -69.500
1304.3800, -69.440
1304.4000, -69.402
1304.4200, -69.323
1304.4400, -69.245
1304.4600, -69.251
1304.4800, -69.114
1304.5000, -69.144
1304.5200, -69.091
1304.5400, -69.003
1304.5600, -68.896
1304.5800, -68.855
1304.6000, -68.730
1304.6200, -68.662
1304.6400, -68.739
1304.6600, -68.727
1304.6800, -68.692
1304.7000, -68.586
1304.7200, -68.582
1304.7400, -68.417
1304.7600, -68.537
1304.7800, -68.449
1304.8000, -68.422
1304.8200, -68.475
1304.8400, -68.464
1304.8600, -68.415
1304.8800, -68.558
1304.9000, -68.466
1304.9200, -68.490
1304.9400, -68.564
1304.9600, -68.633
1304.9800, -68.615
1305.0000, -68.606
1305.0200, -68.640
1305.0400, -68.714
1305.0600, -68.673
1305.0800, -68.766
1305.1000, -68.706
1305.1200, -68.753
1305.1400, -68.710
1305.1600, -68.768
1305.1800, -68.702
1305.2000, -68.759
1305.2200, -68.737
1305.2400, -68.745
1305.2600, -68.621
1305.2800, -68.662
1305.3000, -68.573
1305.3200, -68.527
1305.3400, -68.476
1305.3600, -68.459
1305.3800, -68.333
1305.4000, -68.339
1305.4200, -68.241
1305.4400, -68.144
1305.4600, -68.124
1305.4800, -68.039
1305.5000, -67.893
1305.5200, -67.944
1305.5400, -67.878
1305.5600, -67.801
1305.5800, -67.785
1305.6000, -67.716
1305.6200, -67.567
1305.6400, -67.598
1305.6600, -67.576
1305.6800, -67.447
1305.7000, -67.555
1305.7200, -67.594
1305.7400, -67.481
1305.7600, -67.460
1305.7800, -67.458
1305.8000, -67.581
1305.8200, -67.481
1305.8400, -67.569
1305.8600, -67.535
1305.8800, -67.666
1305.9000, -67.530
1305.9200, -67.687
1305.9400, -67.683
1305.9600, -67.661
1305.9800, -67.717
1306.0000, -67.727
1306.0200, -67.760
1306.0400, -67.827
1306.0600, -67.713
1306.0800, -67.628
1306.1000, -67.826
1306.1200, -67.790
1306.1400, -67.691
1306.1600, -67.634
1306.1800, -67.645
1306.2000, -67.551
1306.2200, -67.565
1306.2400, -67.462
1306.2600, -67.444
1306.2800, -67.429
1306.3000, -67.354
1306.3200, -67.238
1306.3400, -67.171
1306.3600, -67.187
1306.3800, -67.012
1306.4000, -66.990
1306.4200, -66.893
1306.4400, -66.722
1306.4600, -66.705
1306.4800, -66.568
1306.5000, -66.578
1306.5200, -66.408
1306.5400, -66.337
1306.5600, -66.367
1306.5800, -66.324
1306.6000, -66.236
1306.6200, -66.141
1306.6400, -66.058
1306.6600, -66.190
1306.6800, -66.046
1306.7000, -66.149
1306.7200, -66.053
1306.7400, -65.982
1306.7600, -66.010
1306.7800, -66.041
1306.8000, -66.015
1306.8200, -65.925
1306.8400, -65.972
1306.8600, -66.005
1306.8800, -66.138
1306.9000, -66.116
1306.9200, -66.073
1306.9400, -66.024
1306.9600, -66.042
1306.9800, -66.038
1307.0000, -66.112
1307.0200, -66.121
1307.0400, -66.029
1307.0600, -66.001
1307.0800, -66.010
1307.1000, -66.010
1307.1200, -66.019
1307.1400, -66.046
1307.1600, -65.990
1307.1800, -65.813
1307.2000, -65.868
1307.2200, -65.810
1307.2400, -65.741
1307.2600, -65.649
1307.2800, -65.681
1307.3000, -65.539
1307.3200, -65.359
1307.3400, -65.376
1307.3600, -65.356
1307.3800, -65.222
1307.4000, -65.214
1307.4200, -65.169
1307.4400, -65.090
1307.4600, -65.038
1307.4800, -65.004
1307.5000, -64.892
1307.5200, -64.875
1307.5400, -64.801
1307.5600, -64.897
1307.5800, -64.757
1307.6000, -64.878
1307.6200, -64.639
1307.6400, -64.689
1307.6600, -64.639
1307.6800, -64.712
1307.7000, -64.697
1307.7200, -64.786
1307.7400, -64.838
1307.7600, -64.651
1307.7800, -64.660
1307.8000, -64.654
1307.8200, -64.737
1307.8400, -64.738
1307.8600, -64.737
1307.8800, -64.546
1307.9000, -64.824
1307.9200, -64.695
1307.9400, -64.778
1307.9600, -64.773
1307.9800, -64.794
1308.0000, -64.702
1308.0200, -64.669
1308.0400, -64.688
1308.0600, -64.738
1308.0800, -64.679
1308.1000, -64.604
1308.1200, -64.653
1308.1400, -64.540
1308.1600, -64.389
1308.1800, -64.403
1308.2000, -64.456
1308.2200, -64.345
1308.2400, -64.312
1308.2600, -64.221
1308.2800, -64.167
1308.3000, -64.163
1308.3200, -63.983
1308.3400, -63.946
1308.3600, -63.951
1308.3800, -63.881
1308.4000, -63.924
1308.4200, -63.875
1308.4400, -63.856
1308.4600, -63.737
1308.4800, -63.770
1308.5000, -63.738
1308.5200, -63.723
1308.5400, -63.589
1308.5600, -63.654
1308.5800, -63.755
1308.6000, -63.663
1308.6200, -63.788
1308.6400, -63.667
1308.6600, -63.785
1308.6800, -63.782
1308.7000, -63.839
1308.7200, -63.884
1308.7400, -63.843
1308.7600, -63.859
1308.7800, -64.092
1308.8000, -64.043
1308.8200, -63.982
1308.8400, -64.050
1308.8600, -64.086
1308.8800, -64.137
1308.9000, -64.097
1308.9200, -64.090
1308.9400, -64.161
1308.9600, -64.068
1308.9800, -64.052
1309.0000, -64.088
1309.0200, -63.984
1309.0400, -63.983
1309.0600, -63.986
1309.0800, -63.977
1309.1000, -63.962
1309.1200, -63.915
1309.1400, -63.800
1309.1600, -63.773
1309.1800, -63.775
1309.2000, -63.648
1309.2200, -63.576
1309.2400, -63.591
1309.2600, -63.554
1309.2800, -63.404
1309.3000, -63.489
1309.3200, -63.334
1309.3400, -63.284
1309.3600, -63.288
1309.3800, -63.201
1309.4000, -63.257
1309.4200, -63.238
1309.4400, -63.186
1309.4600, -63.242
1309.4800, -63.144
1309.5000, -63.027
1309.5200, -63.271
1309.5400, -63.165
1309.5600, -63.281
1309.5800, -63.223
1309.6000, -63.280
1309.6200, -63.472
1309.6400, -63.384
1309.6600, -63.469
1309.6800, -63.486
1309.7000, -63.447
1309.7200, -63.646
1309.7400, -63.603
1309.7600, -63.607
1309.7800, -63.700
1309.8000, -63.786
1309.8200, -63.895
1309.8400, -63.778
1309.8600, -63.898
1309.8800, -63.907
1309.9000, -63.942
1309.9200, -63.897
1309.9400, -64.023
1309.9600, -63.988
1309.9800, -63.902
1310.0000, -63.908
1310.0200, -63.919
1310.0400, -63.853
1310.0600, -63.849
1310.0800, -63.767
1310.1000, -63.859
1310.1200, -63.756
1310.1400, -63.717
1310.1600, -63.731
1310.1800, -63.660
1310.2000, -63.579
1310.2200, -63.601
1310.2400, -63.541
1310.2600, -63.494
1310.2800, -63.399
1310.3000, -63.432
1310.3200, -63.282
1310.3400, -63.439
1310.3600, -63.336
1310.3800, -63.313
1310.4000, -63.280
1310.4200, -63.341
1310.4400, -63.343
1310.4600, -63.196
1310.4800, -63.451
1310.5000, -63.331
1310.5200, -63.322
1310.5400, -63.280
1310.5600, -63.477
1310.5800, -63.484
1310.6000, -63.477
1310.6200, -63.495
1310.6400, -63.644
1310.6600, -63.689
1310.6800, -63.674
1310.7000, -63.676
1310.7200, -63.713
1310.7400, -63.808
1310.7600, -63.904
1310.7800, -63.875
1310.8000, -63.929
1310.8200, -63.952
1310.8400, -63.884
1310.8600, -63.949
1310.8800, -64.091
1310.9000, -64.050
1310.9200, -63.972
1310.9400, -63.956
1310.9600, -63.967
1310.9800, -64.132
1311.0000, -64.003
1311.0200, -63.958
1311.0400, -63.982
1311.0600, -63.886
1311.0800, -63.942
1311.1000, -63.912
1311.1200, -63.963
1311.1400, -63.843
1311.1600, -63.825
1311.1800, -63.810
1311.2000, -63.819
1311.2200, -63.762
1311.2400, -63.805
1311.2600, -63.631
1311.2800, -63.843
1311.3000, -63.783
1311.3200, -63.721
1311.3400, -63.733
1311.3600, -63.738
1311.3800, -63.766
1311.4000, -63.888
1311.4200, -63.877
1311.4400, -63.874
1311.4600, -63.983
1311.4800, -63.898
1311.5000, -63.985
1311.5200, -64.049
1311.5400, -63.946
1311.5600, -64.033
1311.5800, -64.158
1311.6000, -64.272
1311.6200, -64.230
1311.6400, -64.304
1311.6600, -64.396
1311.6800, -64.330
1311.7000, -64.359
1311.7200, -64.384
1311.7400, -64.471
1311.7600, -64.514
1311.7800, -64.487
1311.8000, -64.284
1311.8200, -64.440
1311.8400, -64.424
1311.8600, -64.436
1311.8800, -64.493
1311.9000, -64.522
1311.9200, -64.519
1311.9400, -64.456
1311.9600, -64.441
1311.9800, -64.357
1312.0000, -64.370
1312.0200, -64.523
1312.0400, -64.376
1312.0600, -64.271
1312.0800, -64.300
1312.1000, -64.169
1312.1200, -64.150
1312.1400, -64.193
1312.1600, -64.103
1312.1800, -64.244
1312.2000, -64.156
1312.2200, -64.125
1312.2400, -64.177
1312.2600, -64.204
1312.2800, -64.107
1312.3000, -64.176
1312.3200, -64.211
1312.3400, -64.198
1312.3600, -64.262
1312.3800, -64.312
1312.4000, -64.305
1312.4200, -64.378
1312.4400, -64.476
1312.4600, -64.486
1312.4800, -64.663
1312.5000, -64.758
1312.5200, -64.733
1312.5400, -64.727
1312.5600, -64.815
1312.5800, -64.931
1312.6000, -64.851
1312.6200, -64.963
1312.6400, -65.017
1312.6600, -65.112
1312.6800, -65.131
1312.7000, -65.175
1312.7200, -65.166
1312.7400, -65.215
1312.7600, -65.306
1312.7800, -65.206
1312.8000, -65.240
1312.8200, -65.233
1312.8400, -65.256
1312.8600, -65.260
1312.8800, -65.169
1312.9000, -65.300
1312.9200, -65.152
1312.9400, -65.182
1312.9600, -65.159
1312.9800, -65.097
1313.0000, -65.088
1313.0200, -65.076
1313.0400, -65.026
1313.0600, -65.057
1313.0800, -65.040
1313.1000, -64.819
1313.1200, -64.986
1313.1400, -64.974
1313.1600, -64.911
1313.1800, -64.994
1313.2000, -65.022
1313.2200, -64.970
1313.2400, -64.970
1313.2600, -65.102
1313.2800, -64.986
1313.3000, -65.097
1313.3200, -65.183
1313.3400, -65.232
1313.3600, -65.193
1313.3800, -65.241
1313.4000, -65.364
1313.4200, -65.469
1313.4400, -65.367
1313.4600, -65.461
1313.4800, -65.614
1313.5000, -65.713
1313.5200, -65.709
1313.5400, -65.845
1313.5600, -65.907
1313.5800, -66.033
1313.6000, -65.965
1313.6200, -65.968
1313.6400, -66.131
1313.6600, -66.264
1313.6800, -66.180
1313.7000, -66.182
1313.7200, -66.254
1313.7400, -66.345
1313.7600, -66.293
1313.7800, -66.349
1313.8000, -66.365
1313.8200, -66.271
1313.8400, -66.275
1313.8600, -66.261
1313.8800, -66.334
1313.9000, -66.253
1313.9200, -66.251
1313.9400, -66.311
1313.9600, -66.269
1313.9800, -66.179
1314.0000, -66.245
1314.0200, -66.173
1314.0400, -66.185
1314.0600, -66.206
1314.0800, -66.263
1314.1000, -66.224
1314.1200, -66.206
1314.1400, -66.134
1314.1600, -66.315
1314.1800, -66.234
1314.2000, -66.303
1314.2200, -66.364
1314.2400, -66.319
1314.2600, -66.427
1314.2800, -66.468
1314.3000, -66.512
1314.3200, -66.594
1314.3400, -66.674
1314.3600, -66.703
1314.3800, -66.673
1314.4000, -66.785
1314.4200, -66.851
1314.4400, -66.977
1314.4600, -67.077
1314.4800, -67.107
1314.5000, -67.088
1314.5200, -67.210
1314.5400, -67.222
1314.5600, -67.330
1314.5800, -67.383
1314.6000, -67.476
1314.6200, -67.520
1314.6400, -67.497
1314.6600, -67.552
1314.6800, -67.622
1314.7000, -67.668
1314.7200, -67.680
1314.7400, -67.756
1314.7600, -67.724
1314.7800, -67.771
1314.8000, -67.797
1314.8200, -67.692
1314.8400, -67.822
1314.8600, -67.779
1314.8800, -67.782
1314.9000, -67.819
1314.9200, -67.839
1314.9400, -67.858
1314.9600, -67.678
1314.9800, -67.847
1315.0000, -67.774
1315.0200, -67.857
1315.0400, -67.820
1315.0600, -67.813
1315.0800, -67.831
1315.1000, -67.870
1315.1200, -67.918
1315.1400, -67.987
1315.1600, -67.952
1315.1800, -68.041
1315.2000, -68.099
1315.2200, -68.116
1315.2400, -68.166
1315.2600, -68.168
1315.2800, -68.378
1315.3000, -68.401
1315.3200, -68.387
1315.3400, -68.409
1315.3600, -68.554
1315.3800, -68.644
1315.4000, -68.685
1315.4200, -68.956
1315.4400, -68.825
1315.4600, -68.923
1315.4800, -69.008
1315.5000, -69.064
1315.5200, -69.093
1315.5400, -69.120
1315.5600, -69.184
1315.5800, -69.302
1315.6000, -69.246
1315.6200, -69.305
1315.6400, -69.283
1315.6600, -69.355
1315.6800, -69.281
1315.7000, -69.382
1315.7200, -69.439
1315.7400, -69.428
1315.7600, -69.287
1315.7800, -69.401
1315.8000, -69.311
1315.8200, -69.388
1315.8400, -69.395
1315.8600, -69.477
1315.8800, -69.349
1315.9000, -69.335
1315.9200, -69.349
1315.9400, -69.368
1315.9600, -69.433
1315.9800, -69.374
1316.0000, -69.369
1316.0200, -69.455
1316.0400, -69.378
1316.0600, -69.484
1316.0800, -69.589
1316.1000, -69.557
1316.1200, -69.686
1316.1400, -69.694
1316.1600, -69.686
1316.1800, -69.829
1316.2000, -69.868
1316.2200, -69.889
1316.2400, -69.903
1316.2600, -70.011
1316.2800, -70.158
1316.3000, -70.111
1316.3200, -70.234
1316.3400, -70.226
1316.3600, -70.209
1316.3800, -70.365
1316.4000, -70.383
1316.4200, -70.476
1316.4400, -70.457
1316.4600, -70.503
1316.4800, -70.673
1316.5000, -70.637
1316.5200, -70.630
1316.5400, -70.713
1316.5600, -70.791
1316.5800, -70.805
1316.6000, -70.710
1316.6200, -70.784
1316.6400, -70.788
1316.6600, -70.781
1316.6800, -70.653
1316.7000, -70.740
1316.7200, -70.768
1316.7400, -70.803
1316.7600, -70.644
1316.7800, -70.793
1316.8000, -70.632
1316.8200, -70.653
1316.8400, -70.622
1316.8600, -70.611
1316.8800, -70.585
1316.9000, -70.558
1316.9200, -70.523
1316.9400, -70.592
1316.9600, -70.566
1316.9800, -70.483
1317.0000, -70.565
1317.0200, -70.507
1317.0400, -70.579
1317.0600, -70.463
1317.0800, -70.695
1317.1000, -70.687
1317.1200, -70.651
1317.1400, -70.734
1317.1600, -70.722
1317.1800, -70.830
1317.2000, -70.902
1317.2200, -70.999
1317.2400, -71.009
1317.2600, -71.040
1317.2800, -71.014
1317.3000, -71.050
1317.3200, -71.140
1317.3400, -71.194
1317.3600, -71.248
1317.3800, -71.289
1317.4000, -71.330
1317.4200, -71.409
1317.4400, -71.417
1317.4600, -71.324
1317.4800, -71.467
1317.5000, -71.564
1317.5200, -71.435
1317.5400, -71.482
1317.5600, -71.549
1317.5800, -71.553
1317.6000, -71.466
1317.6200, -71.512
1317.6400, -71.536
1317.6600, -71.589
1317.6800, -71.553
1317.7000, -71.436
1317.7200, -71.495
1317.7400, -71.424
1317.7600, -71.380
1317.7800, -71.366
1317.8000, -71.403
1317.8200, -71.303
1317.8400, -71.390
1317.8600, -71.343
1317.8800, -71.377
1317.9000, -71.381
1317.9200, -71.301
1317.9400, -71.373
1317.9600, -71.272
1317.9800, -71.226
1318.0000, -71.343
1318.0200, -71.260
1318.0400, -71.298
1318.0600, -71.351
1318.0800, -71.297
1318.1000, -71.399
1318.1200, -71.314
1318.1400, -71.286
1318.1600, -71.314
1318.1800, -71.235
1318.2000, -71.280
1318.2200, -71.274
1318.2400, -71.261
1318.2600, -71.279
1318.2800, -71.272
1318.3000, -71.222
1318.3200, -71.246
1318.3400, -71.285
1318.3600, -71.302
1318.3800, -71.281
1318.4000, -71.271
1318.4200, -71.261
1318.4400, -71.301
1318.4600, -71.211
1318.4800, -71.184
1318.5000, -71.206
1318.5200, -71.216
1318.5400, -71.066
1318.5600, -71.033
1318.5800, -70.973
1318.6000, -71.091
1318.6200, -71.037
1318.6400, -70.966
1318.6600, -70.795
1318.6800, -70.805
1318.7000, -70.853
1318.7200, -70.645
1318.7400, -70.673
1318.7600, -70.656
1318.7800, -70.543
1318.8000, -70.475
1318.8200, -70.400
1318.8400, -70.403
1318.8600, -70.250
1318.8800, -70.290
1318.9000, -70.351
1318.9200, -70.301
1318.9400, -70.242
1318.9600, -70.126
1318.9800, -70.150
1319.0000, -70.266
1319.0200, -70.080
1319.0400, -70.123
1319.0600, -70.107
1319.0800, -70.093
1319.1000, -70.167
1319.1200, -70.183
1319.1400, -70.128
1319.1600, -70.126
1319.1800, -70.145
1319.2000, -70.198
1319.2200, -70.094
1319.2400, -70.146
1319.2600, -70.216
1319.2800, -70.186
1319.3000, -70.210
1319.3200, -70.072
1319.3400, -70.255
1319.3600, -70.118
1319.3800, -70.080
1319.4000, -70.095
1319.4200, -70.166
1319.4400, -70.000
1319.4600, -70.001
1319.4800, -69.976
1319.5000, -69.879
1319.5200, -69.820
1319.5400, -69.848
1319.5600, -69.716
1319.5800, -69.736
1319.6000, -69.638
1319.6200, -69.589
1319.6400, -69.585
1319.6600, -69.478
1319.6800, -69.469
1319.7000, -69.328
1319.7200, -69.332
1319.7400, -69.170
1319.7600, -69.194
1319.7800, -69.130
1319.8000, -69.118
1319.8200, -69.105
1319.8400, -69.025
1319.8600, -68.999
1319.8800, -68.992
1319.9000, -68.979
1319.9200, -68.904
1319.9400, -68.908
1319.9600, -68.883
1319.9800, -68.909
1320.0000, -68.828
1320.0200, -68.882
1320.0400, -68.828
1320.0600, -68.872
1320.0800, -68.800
1320.1000, -68.930
1320.1200, -68.847
1320.1400, -68.926
1320.1600, -68.848
1320.1800, -68.917
1320.2000, -68.887
1320.2200, -68.812
1320.2400, -68.866
1320.2600, -68.851
1320.2800, -68.845
1320.3000, -68.783
1320.3200, -68.818
1320.3400, -68.794
1320.3600, -68.820
1320.3800, -68.634
1320.4000, -68.723
1320.4200, -68.644
1320.4400, -68.544
1320.4600, -68.614
1320.4800, -68.536
1320.5000, -68.439
1320.5200, -68.389
1320.5400, -68.292
1320.5600, -68.287
1320.5800, -68.124
1320.6000, -68.118
1320.6200, -68.036
1320.6400, -67.934
1320.6600, -67.766
1320.6800, -67.834
1320.7000, -67.744
1320.7200, -67.698
1320.7400, -67.668
1320.7600, -67.758
1320.7800, -67.688
1320.8000, -67.573
1320.8200, -67.531
1320.8400, -67.601
1320.8600, -67.480
1320.8800, -67.456
1320.9000, -67.479
1320.9200, -67.553
1320.9400, -67.467
1320.9600, -67.499
1320.9800, -67.538
1321.0000, -67.549
1321.0200, -67.518
1321.0400, -67.607
1321.0600, -67.577
1321.0800, -67.555
1321.1000, -67.587
1321.1200, -67.636
1321.1400, -67.679
1321.1600, -67.780
1321.1800, -67.692
1321.2000, -67.736
1321.2200, -67.726
1321.2400, -67.745
1321.2600, -67.799
1321.2800, -67.756
1321.3000, -67.725
1321.3200, -67.706
1321.3400, -67.791
1321.3600, -67.725
1321.3800, -67.632
1321.4000, -67.647
1321.4200, -67.588
1321.4400, -67.669
1321.4600, -67.661
1321.4800, -67.518
1321.5000, -67.635
1321.5200, -67.479
1321.5400, -67.435
1321.5600, -67.333
1321.5800, -67.377
1321.6000, -67.338
1321.6200, -67.276
1321.6400, -67.231
1321.6600, -67.188
1321.6800, -67.055
1321.7000, -67.085
1321.7200, -67.094
1321.7400, -67.123
1321.7600, -66.954
1321.7800, -67.059
1321.8000, -66.888
1321.8200, -67.089
1321.8400, -67.011
1321.8600, -66.988
1321.8800, -66.969
1321.9000, -66.900
1321.9200, -67.029
1321.9400, -67.078
1321.9600, -67.055
1321.9800, -67.146
1322.0000, -67.173
1322.0200, -67.197
1322.0400, -67.170
1322.0600, -67.139
1322.0800, -67.199
1322.1000, -67.239
1322.1200, -67.278
1322.1400, -67.332
1322.1600, -67.433
1322.1800, -67.493
1322.2000, -67.524
1322.2200, -67.489
1322.2400, -67.619
1322.2600, -67.514
1322.2800, -67.454
1322.3000, -67.472
1322.3200, -67.523
1322.3400, -67.484
1322.3600, -67.575
1322.3800, -67.434
1322.4000, -67.482
1322.4200, -67.454
1322.4400, -67.412
1322.4600, -67.521
1322.4800, -67.420
1322.5000, -67.283
1322.5200, -67.402
1322.5400, -67.280
1322.5600, -67.402
1322.5800, -67.239
1322.6000, -67.154
1322.6200, -67.108
1322.6400, -67.175
1322.6600, -67.226
1322.6800, -67.059
1322.7000, -67.047
1322.7200, -67.121
1322.7400, -67.142
1322.7600, -67.074
1322.7800, -66.974
1322.8000, -66.945
1322.8200, -67.041
1322.8400, -67.095
1322.8600, -67.123
1322.8800, -67.057
1322.9000, -67.172
1322.9200, -67.173
1322.9400, -67.294
1322.9600, -67.249
1322.9800, -67.287
1323.0000, -67.354
1323.0200, -67.477
1323.0400, -67.538
1323.0600, -67.507
1323.0800, -67.620
1323.1000, -67.627
1323.1200, -67.660
1323.1400, -67.694
1323.1600, -67.784
1323.1800, -67.807
1323.2000, -67.991
1323.2200, -67.900
1323.2400, -67.954
1323.2600, -67.934
1323.2800, -67.951
1323.3000, -67.841
1323.3200, -68.045
1323.3400, -68.006
1323.3600, -67.875
1323.3800, -67.919
1323.4000, -67.961
1323.4200, -67.876
1323.4400, -67.815
1323.4600, -67.795
1323.4800, -67.781
1323.5000, -67.690
1323.5200, -67.825
1323.5400, -67.700
1323.5600, -67.616
1323.5800, -67.643
1323.6000, -67.642
1323.6200, -67.593
1323.6400, -67.616
1323.6600, -67.637
1323.6800, -67.647
1323.7000, -67.524
1323.7200, -67.587
1323.7400, -67.562
1323.7600, -67.615
1323.7800, -67.691
1323.8000, -67.726
1323.8200, -67.652
1323.8400, -67.703
1323.8600, -67.802
1323.8800, -67.681
1323.9000, -67.844
1323.9200, -67.843
1323.9400, -67.840
1323.9600, -67.905
1323.9800, -68.023
1324.0000, -68.123
1324.0200, -68.191
1324.0400, -68.113
1324.0600, -68.101
1324.0800, -68.149
1324.1000, -68.131
1324.1200, -68.154
1324.1400, -68.245
1324.1600, -68.199
1324.1800, -68.262
1324.2000, -68.331
1324.2200, -68.267
1324.2400, -68.304
1324.2600, -68.316
1324.2800, -68.351
1324.3000, -68.288
1324.3200, -68.320
1324.3400, -68.346
1324.3600, -68.153
1324.3800, -68.225
1324.4000, -68.179
1324.4200, -68.145
1324.4400, -68.155
1324.4600, -68.195
1324.4800, -68.205
1324.5000, -68.232
1324.5200, -68.176
1324.5400, -68.165
1324.5600, -68.037
1324.5800, -68.068
1324.6000, -68.141
1324.6200, -68.192
1324.6400, -68.118
1324.6600, -68.234
1324.6800, -68.221
1324.7000, -68.175
1324.7200, -68.164
1324.7400, -68.270
1324.7600, -68.119
1324.7800, -68.212
1324.8000, -68.257
1324.8200, -68.267
1324.8400, -68.260
1324.8600, -68.162
1324.8800, -68.262
1324.9000, -68.244
1324.9200, -68.261
1324.9400, -68.264
1324.9600, -68.253
1324.9800, -68.378
1325.0000, -68.293
1325.0200, -68.504
1325.0400, -68.423
1325.0600, -68.508
1325.0800, -68.472
1325.1000, -68.477
1325.1200, -68.450
1325.1400, -68.559
1325.1600, -68.540
1325.1800, -68.583
1325.2000, -68.572
1325.2200, -68.461
1325.2400, -68.537
1325.2600, -68.605
1325.2800, -68.654
1325.3000, -68.632
1325.3200, -68.720
1325.3400, -68.570
1325.3600, -68.559
1325.3800, -68.567
1325.4000, -68.523
1325.4200, -68.561
1325.4400, -68.502
1325.4600, -68.482
1325.4800, -68.467
1325.5000, -68.402
1325.5200, -68.528
1325.5400, -68.406
1325.5600, -68.414
1325.5800, -68.502
1325.6000, -68.488
1325.6200, -68.406
1325.6400, -68.554
1325.6600, -68.471
1325.6800, -68.527
1325.7000, -68.513
1325.7200, -68.555
1325.7400, -68.652
1325.7600, -68.599
1325.7800, -68.731
1325.8000, -68.675
1325.8200, -68.765
1325.8400, -68.853
1325.8600, -68.831
1325.8800, -68.858
1325.9000, -68.871
1325.9200, -68.942
1325.9400, -69.017
1325.9600, -69.040
1325.9800, -69.149
1326.0000, -69.133
1326.0200, -69.180
1326.0400, -69.288
1326.0600, -69.188
1326.0800, -69.323
1326.1000, -69.372
1326.1200, -69.251
1326.1400, -69.492
1326.1600, -69.428
1326.1800, -69.470
1326.2000, -69.475
1326.2200, -69.396
1326.2400, -69.476
1326.2600, -69.411
1326.2800, -69.412
1326.3000, -69.411
1326.3200, -69.419
1326.3400, -69.381
1326.3600, -69.516
1326.3800, -69.359
1326.4000, -69.450
1326.4200, -69.454
1326.4400, -69.538
1326.4600, -69.305
1326.4800, -69.524
1326.5000, -69.415
1326.5200, -69.362
1326.5400, -69.444
1326.5600, -69.552
1326.5800, -69.467
1326.6000, -69.548
1326.6200, -69.526
1326.6400, -69.553
1326.6600, -69.627
1326.6800, -69.700
1326.7000, -69.669
1326.7200, -69.704
1326.7400, -69.755
1326.7600, -69.768
1326.7800, -69.787
1326.8000, -69.816
1326.8200, -69.966
1326.8400, -69.922
1326.8600, -70.034
1326.8800, -70.142
1326.9000, -70.136
1326.9200, -70.187
1326.9400, -70.293
1326.9600, -70.209
1326.9800, -70.309
1327.0000, -70.391
1327.0200, -70.459
1327.0400, -70.450
1327.0600, -70.596
1327.0800, -70.598
1327.1000, -70.539
1327.1200, -70.537
1327.1400, -70.584
1327.1600, -70.507
1327.1800, -70.666
1327.2000, -70.611
1327.2200, -70.673
1327.2400, -70.647
1327.2600, -70.579
1327.2800, -70.611
1327.3000, -70.687
1327.3200, -70.632
1327.3400, -70.675
1327.3600, -70.571
1327.3800, -70.560
1327.4000, -70.507
1327.4200, -70.532
1327.4400, -70.535
1327.4600, -70.542
1327.4800, -70.621
1327.5000, -70.699
1327.5200, -70.680
1327.5400, -70.682
1327.5600, -70.687
1327.5800, -70.711
1327.6000, -70.670
1327.6200, -70.784
1327.6400, -70.829
1327.6600, -70.886
1327.6800, -70.875
1327.7000, -70.827
1327.7200, -70.931
1327.7400, -70.931
1327.7600, -70.960
1327.7800, -71.059
1327.8000, -71.124
1327.8200, -71.177
1327.8400, -71.203
1327.8600, -71.257
1327.8800, -71.365
1327.9000, -71.434
1327.9200, -71.438
1327.9400, -71.446
1327.9600, -71.460
1327.9800, -71.592
1328.0000, -71.595
1328.0200, -71.663
1328.0400, -71.701
1328.0600, -71.767
1328.0800, -71.796
1328.1000, -71.728
1328.1200, -71.769
1328.1400, -71.779
1328.1600, -71.848
1328.1800, -71.820
1328.2000, -71.845
1328.2200, -71.752
1328.2400, -71.786
1328.2600, -71.853
1328.2800, -71.783
1328.3000, -71.843
1328.3200, -71.743
1328.3400, -71.786
1328.3600, -71.834
1328.3800, -71.846
1328.4000, -71.800
1328.4200, -71.936
1328.4400, -71.823
1328.4600, -71.873
1328.4800, -71.849
1328.5000, -71.889
1328.5200, -71.884
1328.5400, -71.878
1328.5600, -72.073
1328.5800, -72.093
1328.6000, -72.075
1328.6200, -71.952
1328.6400, -72.017
1328.6600, -72.093
1328.6800, -72.071
1328.7000, -72.104
1328.7200, -72.102
1328.7400, -72.169
1328.7600, -72.155
1328.7800, -72.158
1328.8000, -72.304
1328.8200, -72.448
1328.8400, -72.379
1328.8600, -72.434
1328.8800, -72.486
1328.9000, -72.540
1328.9200, -72.606
1328.9400, -72.601
1328.9600, -72.717
1328.9800, -72.687
1329.0000, -72.737
1329.0200, -72.727
1329.0400, -72.759
1329.0600, -72.661
1329.0800, -72.680
1329.1000, -72.810
1329.1200, -72.756
1329.1400, -72.791
1329.1600, -72.702
1329.1800, -72.717
1329.2000, -72.665
1329.2200, -72.700
1329.2400, -72.700
1329.2600, -72.688
1329.2800, -72.717
1329.3000, -72.616
1329.3200, -72.605
1329.3400, -72.618
1329.3600, -72.599
1329.3800, -72.638
1329.4000, -72.599
1329.4200, -72.683
1329.4400, -72.683
1329.4600, -72.608
1329.4800, -72.533
1329.5000, -72.716
1329.5200, -72.638
1329.5400, -72.694
1329.5600, -72.725
1329.5800, -72.628
1329.6000, -72.767
1329.6200, -72.813
1329.6400, -72.904
1329.6600, -72.979
1329.6800, -72.887
1329.7000, -72.998
1329.7200, -73.025
1329.7400, -73.076
1329.7600, -73.188
1329.7800, -73.148
1329.8000, -73.317
1329.8200, -73.163
1329.8400, -73.361
1329.8600, -73.395
1329.8800, -73.377
1329.9000, -73.497
1329.9200, -73.479
1329.9400, -73.451
1329.9600, -73.505
1329.9800, -73.509
1330.0000, -73.559
1330.0200, -73.478
1330.0400, -73.593
1330.0600, -73.539
1330.0800, -73.564
1330.1000, -73.547
1330.1200, -73.493
1330.1400, -73.543
1330.1600, -73.608
1330.1800, -73.493
1330.2000, -73.468
1330.2200, -73.463
1330.2400, -73.401
1330.2600, -73.413
1330.2800, -73.296
1330.3000, -73.313
1330.3200, -73.333
1330.3400, -73.206
1330.3600, -73.275
1330.3800, -73.281
1330.4000, -73.103
1330.4200, -73.130
1330.4400, -73.169
1330.4600, -73.140
1330.4800, -73.085
1330.5000, -73.168
1330.5200, -73.134
1330.5400, -73.172
1330.5600, -73.187
1330.5800, -73.250
1330.6000, -73.101
1330.6200, -73.147
1330.6400, -73.137
1330.6600, -73.101
1330.6800, -73.177
1330.7000, -73.175
1330.7200, -73.252
1330.7400, -73.220
1330.7600, -73.208
1330.7800, -73.169
1330.8000, -73.247
1330.8200, -73.317
1330.8400, -73.192
1330.8600, -73.267
1330.8800, -73.292
1330.9000, -73.338
1330.9200, -73.273
1330.9400, -73.285
1330.9600, -73.265
1330.9800, -73.131
1331.0000, -73.143
1331.0200, -73.136
1331.0400, -73.110
1331.0600, -73.140
1331.0800, -73.079
1331.1000, -73.082
1331.1200, -72.932
1331.1400, -72.892
1331.1600, -72.869
1331.1800, -72.812
1331.2000, -72.708
1331.2200, -72.668
1331.2400, -72.554
1331.2600, -72.584
1331.2800, -72.489
1331.3000, -72.403
1331.3200, -72.337
1331.3400, -72.271
1331.3600, -72.314
1331.3800, -72.113
1331.4000, -72.244
1331.4200, -72.123
1331.4400, -72.069
1331.4600, -72.157
1331.4800, -71.962
1331.5000, -71.850
1331.5200, -71.849
1331.5400, -71.969
1331.5600, -71.933
1331.5800, -71.909
1331.6000, -71.893
1331.6200, -71.909
1331.6400, -71.829
1331.6600, -71.936
1331.6800, -71.783
1331.7000, -71.834
1331.7200, -71.836
1331.7400, -71.823
1331.7600, -71.771
1331.7800, -71.788
1331.8000, -71.845
1331.8200, -71.818
1331.8400, -71.751
1331.8600, -71.798
1331.8800, -71.772
1331.9000, -71.663
1331.9200, -71.743
1331.9400, -71.701
1331.9600, -71.683
1331.9800, -71.545
1332.0000, -71.497
1332.0200, -71.517
1332.0400, -71.471
1332.0600, -71.580
1332.0800, -71.410
1332.1000, -71.340
1332.1200, -71.301
1332.1400, -71.280
1332.1600, -71.153
1332.1800, -71.109
1332.2000, -71.042
1332.2200, -71.054
1332.2400, -70.805
1332.2600, -70.927
1332.2800, -70.860
1332.3000, -70.684
1332.3200, -70.640
1332.3400, -70.519
1332.3600, -70.587
1332.3800, -70.568
1332.4000, -70.508
1332.4200, -70.512
1332.4400, -70.502
1332.4600, -70.402
1332.4800, -70.341
1332.5000, -70.349
1332.5200, -70.257
1332.5400, -70.353
1332.5600, -70.147
1332.5800, -70.206
1332.6000, -70.222
1332.6200, -70.278
1332.6400, -70.195
1332.6600, -70.150
1332.6800, -70.243
1332.7000, -70.124
1332.7200, -70.127
1332.7400, -70.138
1332.7600, -70.096
1332.7800, -70.149
1332.8000, -70.116
1332.8200, -70.079
1332.8400, -70.145
1332.8600, -70.034
1332.8800, -70.026
1332.9000, -70.042
1332.9200, -70.098
1332.9400, -70.056
1332.9600, -69.960
1332.9800, -69.922
1333.0000, -69.835
1333.0200, -69.844
1333.0400, -69.849
1333.0600, -69.818
1333.0800, -69.703
1333.1000, -69.790
1333.1200, -69.699
1333.1400, -69.633
1333.1600, -69.507
1333.1800, -69.443
1333.2000, -69.463
1333.2200, -69.350
1333.2400, -69.387
1333.2600, -69.221
1333.2800, -69.178
1333.3000, -69.150
1333.3200, -69.149
1333.3400, -68.991
1333.3600, -69.054
1333.3800, -68.956
1333.4000, -68.973
1333.4200, -68.934
1333.4400, -68.893
1333.4600, -69.043
1333.4800, -68.842
1333.5000, -68.838
1333.5200, -68.902
1333.5400, -68.847
1333.5600, -68.757
1333.5800, -68.792
1333.6000, -68.818
1333.6200, -68.883
1333.6400, -68.817
1333.6600, -68.808
1333.6800, -68.892
1333.7000, -68.875
1333.7200, -68.885
1333.7400, -68.836
1333.7600, -68.891
1333.7800, -68.819
1333.8000, -68.776
1333.8200, -68.883
1333.8400, -68.939
1333.8600, -68.856
1333.8800, -68.919
1333.9000, -68.911
1333.9200, -68.802
1333.9400, -68.804
1333.9600, -68.806
1333.9800, -68.719
1334.0000, -68.732
1334.0200, -68.634
1334.0400, -68.600
1334.0600, -68.602
1334.0800, -68.683
1334.1000, -68.558
1334.1200, -68.470
1334.1400, -68.433
1334.1600, -68.358
1334.1800, -68.424
1334.2000, -68.346
1334.2200, -68.306
1334.2400, -68.211
1334.2600, -68.266
1334.2800, -68.217
1334.3000, -68.114
1334.3200, -68.019
1334.3400, -68.107
1334.3600, -68.035
1334.3800, -68.017
1334.4000, -68.094
1334.4200, -68.064
1334.4400, -68.010
1334.4600, -67.832
1334.4800, -67.898
1334.5000, -67.967
1334.5200, -67.964
1334.5400, -67.925
1334.5600, -67.971
1334.5800, -68.023
1334.6000, -68.057
1334.6200, -67.993
1334.6400, -68.088
1334.6600, -68.078
1334.6800, -67.996
1334.7000, -68.126
1334.7200, -67.983
1334.7400, -68.050
1334.7600, -68.065
1334.7800, -68.161
1334.8000, -68.158
1334.8200, -68.149
1334.8400, -68.068
1334.8600, -68.138
1334.8800, -68.105
1334.9000, -68.081
1334.9200, -68.090
1334.9400, -68.086
1334.9600, -68.111
1334.9800, -68.137
1335.0000, -68.005
1335.0200, -68.021
1335.0400, -67.935
1335.0600, -67.999
1335.0800, -67.827
1335.1000, -67.889
1335.1200, -67.907
1335.1400, -67.870
1335.1600, -67.754
1335.1800, -67.874
1335.2000, -67.748
1335.2200, -67.800
1335.2400, -67.658
1335.2600, -67.771
1335.2800, -67.651
1335.3000, -67.664
1335.3200, -67.611
1335.3400, -67.576
1335.3600, -67.695
1335.3800, -67.554
1335.4000, -67.671
1335.4200, -67.706
1335.4400, -67.594
1335.4600, -67.600
1335.4800, -67.606
1335.5000, -67.680
1335.5200, -67.545
1335.5400, -67.742
1335.5600, -67.661
1335.5800, -67.890
1335.6000, -67.784
1335.6200, -67.805
1335.6400, -67.817
1335.6600, -67.896
1335.6800, -67.822
1335.7000, -67.964
1335.7200, -67.875
1335.7400, -67.912
1335.7600, -67.845
1335.7800, -68.019
1335.8000, -67.965
1335.8200, -67.935
1335.8400, -67.965
1335.8600, -68.095
1335.8800, -67.994
1335.9000, -67.884
1335.9200, -67.963
1335.9400, -67.951
1335.9600, -67.856
1335.9800, -67.878
1336.0000, -67.763
1336.0200, -67.904
1336.0400, -67.935
1336.0600, -67.903
1336.0800, -67.772
1336.1000, -67.899
1336.1200, -67.794
1336.1400, -67.624
1336.1600, -67.722
1336.1800, -67.644
1336.2000, -67.737
1336.2200, -67.654
1336.2400, -67.669
1336.2600, -67.453
1336.2800, -67.561
1336.3000, -67.489
1336.3200, -67.578
1336.3400, -67.520
1336.3600, -67.537
1336.3800, -67.476
1336.4000, -67.577
1336.4200, -67.533
1336.4400, -67.513
1336.4600, -67.654
1336.4800, -67.610
1336.5000, -67.672
1336.5200, -67.603
1336.5400, -67.722
1336.5600, -67.690
1336.5800, -67.721
1336.6000, -67.799
1336.6200, -67.752
1336.6400, -67.834
1336.6600, -67.680
1336.6800, -67.841
1336.7000, -67.903
1336.7200, -67.773
1336.7400, -67.989
1336.7600, -67.968
1336.7800, -67.965
1336.8000, -67.930
1336.8200, -67.978
1336.8400, -67.980
1336.8600, -67.973
1336.8800, -67.993
1336.9000, -67.853
1336.9200, -67.936
1336.9400, -67.765
1336.9600, -67.815
1336.9800, -67.924
1337.0000, -67.807
1337.0200, -67.737
1337.0400, -67.799
1337.0600, -67.786
1337.0800, -67.758
1337.1000, -67.731
1337.1200, -67.624
1337.1400, -67.676
1337.1600, -67.803
1337.1800, -67.614
1337.2000, -67.680
1337.2200, -67.599
1337.2400, -67.522
1337.2600, -67.654
1337.2800, -67.637
1337.3000, -67.653
1337.3200, -67.585
1337.3400, -67.564
1337.3600, -67.628
1337.3800, -67.562
1337.4000, -67.616
1337.4200, -67.673
1337.4400, -67.787
1337.4600, -67.753
1337.4800, -67.749
1337.5000, -67.829
1337.5200, -67.778
1337.5400, -67.887
1337.5600, -67.846
1337.5800, -67.977
1337.6000, -67.925
1337.6200, -68.009
1337.6400, -68.018
1337.6600, -67.988
1337.6800, -67.995
1337.7000, -68.052
1337.7200, -67.996
1337.7400, -68.061
1337.7600, -68.146
1337.7800, -68.147
1337.8000, -68.136
1337.8200, -68.144
1337.8400, -68.069
1337.8600, -68.147
1337.8800, -68.110
1337.9000, -68.143
1337.9200, -68.237
1337.9400, -68.149
1337.9600, -68.104
1337.9800, -68.146
1338.0000, -68.081
1338.0200, -68.028
1338.0400, -68.025
1338.0600, -68.089
1338.0800, -68.052
1338.1000, -68.058
1338.1200, -68.001
1338.1400, -67.978
1338.1600, -67.950
1338.1800, -67.961
1338.2000, -67.983
1338.2200, -68.086
1338.2400, -68.074
1338.2600, -67.971
1338.2800, -67.930
1338.3000, -68.062
1338.3200, -68.019
1338.3400, -68.046
1338.3600, -68.034
1338.3800, -67.978
1338.4000, -68.095
1338.4200, -68.090
1338.4400, -68.136
1338.4600, -68.238
1338.4800, -68.181
1338.5000, -68.201
1338.5200, -68.359
1338.5400, -68.379
1338.5600, -68.330
1338.5800, -68.410
1338.6000, -68.443
1338.6200, -68.435
1338.6400, -68.473
1338.6600, -68.471
1338.6800, -68.649
1338.7000, -68.668
1338.7200, -68.754
1338.7400, -68.848
1338.7600, -68.676
1338.7800, -68.763
1338.8000, -68.833
1338.8200, -68.745
1338.8400, -68.930
1338.8600, -68.857
1338.8800, -68.876
1338.9000, -68.880
1338.9200, -68.944
1338.9400, -68.930
1338.9600, -68.900
1338.9800, -68.792
1339.0000, -68.851
1339.0200, -68.979
1339.0400, -68.825
1339.0600, -68.799
1339.0800, -68.877
1339.1000, -68.820
1339.1200, -68.933
1339.1400, -69.001
1339.1600, -68.975
1339.1800, -69.066
1339.2000, -69.044
1339.2200, -69.024
1339.2400, -68.967
1339.2600, -69.018
1339.2800, -69.001
1339.3000, -69.089
1339.3200, -69.131
1339.3400, -69.078
1339.3600, -69.206
1339.3800, -69.236
1339.4000, -69.282
1339.4200, -69.321
1339.4400, -69.444
1339.4600, -69.462
1339.4800, -69.522
1339.5000, -69.603
1339.5200, -69.604
1339.5400, -69.796
1339.5600, -69.534
1339.5800, -69.759
1339.6000, -69.771
1339.6200, -69.888
1339.6400, -69.900
1339.6600, -69.993
1339.6800, -70.092
1339.7000, -70.004
1339.7200, -70.064
1339.7400, -70.068
1339.7600, -70.111
1339.7800, -70.104
1339.8000, -70.176
1339.8200, -70.253
1339.8400, -70.215
1339.8600, -70.283
1339.8800, -70.368
1339.9000, -70.298
1339.9200, -70.366
1339.9400, -70.419
1339.9600, -70.355
1339.9800, -70.501
1340.0000, -70.432
1340.0200, -70.363
1340.0400, -70.411
1340.0600, -70.446
1340.0800, -70.435
1340.1000, -70.438
1340.1200, -70.492
1340.1400, -70.489
1340.1600, -70.520
1340.1800, -70.634
1340.2000, -70.550
1340.2200, -70.653
1340.2400, -70.673
1340.2600, -70.759
1340.2800, -70.804
1340.3000, -70.783
1340.3200, -70.792
1340.3400, -70.890
1340.3600, -70.808
1340.3800, -70.838
1340.4000, -70.975
1340.4200, -71.033
1340.4400, -71.103
1340.4600, -71.188
1340.4800, -71.159
1340.5000, -71.197
1340.5200, -71.198
1340.5400, -71.219
1340.5600, -71.401
1340.5800, -71.463
1340.6000, -71.343
1340.6200, -71.641
1340.6400, -71.547
1340.6600, -71.637
1340.6800, -71.638
1340.7000, -71.695
1340.7200, -71.804
1340.7400, -71.783
1340.7600, -71.850
1340.7800, -71.820
1340.8000, -71.849
1340.8200, -71.848
1340.8400, -71.938
1340.8600, -72.048
1340.8800, -72.072
1340.9000, -72.107
1340.9200, -72.120
1340.9400, -72.078
1340.9600, -72.117
1340.9800, -72.141
1341.0000, -72.103
1341.0200, -72.075
1341.0400, -72.141
1341.0600, -72.152
1341.0800, -72.161
1341.1000, -72.126
1341.1200, -72.107
1341.1400, -72.327
1341.1600, -72.341
1341.1800, -72.238
1341.2000, -72.335
1341.2200, -72.259
1341.2400, -72.225
1341.2600, -72.378
1341.2800, -72.516
1341.3000, -72.445
1341.3200, -72.549
1341.3400, -72.637
1341.3600, -72.616
1341.3800, -72.668
1341.4000, -72.747
1341.4200, -72.700
1341.4400, -72.852
1341.4600, -72.807
1341.4800, -72.816
1341.5000, -72.973
1341.5200, -72.968
1341.5400, -72.989
1341.5600, -73.029
1341.5800, -72.972
1341.6000, -73.048
1341.6200, -73.120
1341.6400, -73.146
1341.6600, -73.261
1341.6800, -73.387
1341.7000, -73.431
1341.7200, -73.425
1341.7400, -73.441
1341.7600, -73.539
1341.7800, -73.455
1341.8000, -73.444
1341.8200, -73.585
1341.8400, -73.564
1341.8600, -73.439
1341.8800, -73.483
1341.9000, -73.648
1341.9200, -73.644
1341.9400, -73.480
1341.9600, -73.586
1341.9800, -73.516
1342.0000, -73.549
1342.0200, -73.710
1342.0400, -73.646
1342.0600, -73.505
1342.0800, -73.576
1342.1000, -73.383
1342.1200, -73.541
1342.1400, -73.639
1342.1600, -73.495
1342.1800, -73.526
1342.2000, -73.524
1342.2200, -73.637
1342.2400, -73.620
1342.2600, -73.632
1342.2800, -73.604
1342.3000, -73.639
1342.3200, -73.742
1342.3400, -73.677
1342.3600, -73.833
1342.3800, -73.823
1342.4000, -73.903
1342.4200, -73.876
1342.4400, -73.968
1342.4600, -73.821
1342.4800, -73.907
1342.5000, -74.048
1342.5200, -73.893
1342.5400, -73.979
1342.5600, -74.040
1342.5800, -74.091
1342.6000, -73.992
1342.6200, -74.237
1342.6400, -74.194
1342.6600, -74.190
1342.6800, -74.142
1342.7000, -74.197
1342.7200, -74.137
1342.7400, -74.229
1342.7600, -74.304
1342.7800, -74.282
1342.8000, -74.305
1342.8200, -74.271
1342.8400, -74.248
1342.8600, -74.292
1342.8800, -74.459
1342.9000, -74.257
1342.9200, -74.367
1342.9400, -74.220
1342.9600, -74.297
1342.9800, -74.328
1343.0000, -74.373
1343.0200, -74.332
1343.0400, -74.150
1343.0600, -74.170
1343.0800, -74.262
1343.1000, -74.182
1343.1200, -74.221
1343.1400, -74.142
1343.1600, -74.058
1343.1800, -74.153
1343.2000, -74.185
1343.2200, -74.099
1343.2400, -74.112
1343.2600, -74.023
1343.2800, -74.092
1343.3000, -74.080
1343.3200, -74.091
1343.3400, -74.263
1343.3600, -74.132
1343.3800, -74.048
1343.4000, -74.076
1343.4200, -74.124
1343.4400, -74.228
1343.4600, -74.112
1343.4800, -74.169
1343.5000, -74.205
1343.5200, -74.111
1343.5400, -74.295
1343.5600, -74.120
1343.5800, -74.099
1343.6000, -74.134
1343.6200, -74.131
1343.6400, -74.188
1343.6600, -74.173
1343.6800, -74.053
1343.7000, -74.033
1343.7200, -73.976
1343.7400, -74.039
1343.7600, -74.104
1343.7800, -73.993
1343.8000, -73.925
1343.8200, -73.812
1343.8400, -73.914
1343.8600, -73.874
1343.8800, -73.916
1343.9000, -73.817
1343.9200, -73.836
1343.9400, -73.587
1343.9600, -73.727
1343.9800, -73.460
1344.0000, -73.582
1344.0200, -73.405
1344.0400, -73.467
1344.0600, -73.491
1344.0800, -73.353
1344.1000, -73.193
1344.1200, -73.267
1344.1400, -73.088
1344.1600, -73.098
1344.1800, -73.115
1344.2000, -73.185
1344.2200, -73.026
1344.2400, -72.896
1344.2600, -73.010
1344.2800, -72.990
1344.3000, -73.052
1344.3200, -72.749
1344.3400, -72.832
1344.3600, -72.927
1344.3800, -72.745
1344.4000, -72.804
1344.4200, -72.723
1344.4400, -72.934
1344.4600, -72.541
1344.4800, -72.584
1344.5000, -72.607
1344.5200, -72.684
1344.5400, -72.660
1344.5600, -72.556
1344.5800, -72.716
1344.6000, -72.617
1344.6200, -72.614
1344.6400, -72.555
1344.6600, -72.524
1344.6800, -72.498
1344.7000, -72.474
1344.7200, -72.503
1344.7400, -72.464
1344.7600, -72.363
1344.7800, -72.309
1344.8000, -72.337
1344.8200, -72.196
1344.8400, -72.193
1344.8600, -72.044
1344.8800, -72.125
1344.9000, -71.970
1344.9200, -71.997
1344.9400, -71.831
1344.9600, -71.719
1344.9800, -71.677
1345.0000, -71.712
1345.0200, -71.710
1345.0400, -71.631
1345.0600, -71.568
1345.0800, -71.410
1345.1000, -71.439
1345.1200, -71.332
1345.1400, -71.295
1345.1600, -71.257
1345.1800, -71.124
1345.2000, -71.238
1345.2200, -71.039
1345.2400, -71.215
1345.2600, -71.018
1345.2800, -71.058
1345.3000, -70.814
1345.3200, -70.841
1345.3400, -70.973
1345.3600, -70.850
1345.3800, -70.875
1345.4000, -70.825
1345.4200, -70.738
1345.4400, -70.876
1345.4600, -70.757
1345.4800, -70.740
1345.5000, -70.803
1345.5200, -70.722
1345.5400, -70.891
1345.5600, -70.852
1345.5800, -70.740
1345.6000, -70.787
1345.6200, -70.635
1345.6400, -70.680
1345.6600, -70.766
1345.6800, -70.616
1345.7000, -70.691
1345.7200, -70.691
1345.7400, -70.618
1345.7600, -70.575
1345.7800, -70.477
1345.8000, -70.476
1345.8200, -70.440
1345.8400, -70.407
1345.8600, -70.351
1345.8800, -70.243
1345.9000, -70.364
1345.9200, -70.288
1345.9400, -70.133
1345.9600, -70.111
1345.9800, -69.957
1346.0000, -70.032
1346.0200, -70.004
1346.0400, -69.978
1346.0600, -69.996
1346.0800, -69.940
1346.1000, -69.873
1346.1200, -69.791
1346.1400, -69.832
1346.1600, -69.671
1346.1800, -69.745
1346.2000, -69.709
1346.2200, -69.535
1346.2400, -69.633
1346.2600, -69.691
1346.2800, -69.514
1346.3000, -69.676
1346.3200, -69.503
1346.3400, -69.684
1346.3600, -69.568
1346.3800, -69.674
1346.4000, -69.703
1346.4200, -69.462
1346.4400, -69.545
1346.4600, -69.566
1346.4800, -69.671
1346.5000, -69.455
1346.5200, -69.424
1346.5400, -69.557
1346.5600, -69.516
1346.5800, -69.548
1346.6000, -69.533
1346.6200, -69.677
1346.6400, -69.725
1346.6600, -69.757
1346.6800, -69.526
1346.7000, -69.475
1346.7200, -69.470
1346.7400, -69.592
1346.7600, -69.599
1346.7800, -69.480
1346.8000, -69.469
1346.8200, -69.447
1346.8400, -69.558
1346.8600, -69.359
1346.8800, -69.406
1346.9000, -69.289
1346.9200, -69.344
1346.9400, -69.281
1346.9600, -69.232
1346.9800, -69.198
1347.0000, -69.172
1347.0200, -69.221
1347.0400, -68.962
1347.0600, -68.989
1347.0800, -69.007
1347.1000, -69.084
1347.1200, -69.046
1347.1400, -68.967
1347.1600, -68.963
1347.1800, -69.025
1347.2000, -68.997
1347.2200, -68.980
1347.2400, -69.037
1347.2600, -68.885
1347.2800, -68.862
1347.3000, -69.025
1347.3200, -68.864
1347.3400, -68.772
1347.3600, -68.840
1347.3800, -68.999
1347.4000, -68.821
1347.4200, -68.878
1347.4400, -68.951
1347.4600, -68.970
1347.4800, -68.932
1347.5000, -68.924
1347.5200, -68.937
1347.5400, -68.992
1347.5600, -68.962
1347.5800, -69.037
1347.6000, -68.934
1347.6200, -69.020
1347.6400, -68.945
1347.6600, -69.107
1347.6800, -69.039
1347.7000, -68.966
1347.7200, -69.071
1347.7400, -69.102
1347.7600, -69.119
1347.7800, -69.153
1347.8000, -69.067
1347.8200, -69.123
1347.8400, -69.113
1347.8600, -69.165
1347.8800, -68.970
1347.9000, -69.003
1347.9200, -69.004
1347.9400, -68.899
1347.9600, -68.953
1347.9800, -68.902
1348.0000, -68.787
1348.0200, -68.903
1348.0400, -68.860
1348.0600, -68.823
1348.0800, -68.689
1348.1000, -68.648
1348.1200, -68.580
1348.1400, -68.517
1348.1600, -68.642
1348.1800, -68.633
1348.2000, -68.561
1348.2200, -68.546
1348.2400, -68.349
1348.2600, -68.481
1348.2800, -68.435
1348.3000, -68.399
1348.3200, -68.619
1348.3400, -68.558
1348.3600, -68.601
1348.3800, -68.486
1348.4000, -68.606
1348.4200, -68.582
1348.4400, -68.465
1348.4600, -68.471
1348.4800, -68.521
1348.5000, -68.639
1348.5200, -68.610
1348.5400, -68.583
1348.5600, -68.694
1348.5800, -68.635
1348.6000, -68.660
1348.6200, -68.696
1348.6400, -68.648
1348.6600, -68.568
1348.6800, -68.735
1348.7000, -68.621
1348.7200, -68.498
1348.7400, -68.593
1348.7600, -68.549
1348.7800, -68.491
1348.8000, -68.473
1348.8200, -68.480
1348.8400, -68.477
1348.8600, -68.501
1348.8800, -68.439
1348.9000, -68.530
1348.9200, -68.485
1348.9400, -68.487
1348.9600, -68.406
1348.9800, -68.375
1349.0000, -68.487
1349.0200, -68.349
1349.0400, -68.351
1349.0600, -68.316
1349.0800, -68.252
1349.1000, -68.340
1349.1200, -68.120
1349.1400, -68.187
1349.1600, -68.320
1349.1800, -68.147
1349.2000, -68.271
1349.2200, -68.125
1349.2400, -68.229
1349.2600, -68.162
1349.2800, -68.223
1349.3000, -68.160
1349.3200, -68.156
1349.3400, -68.096
1349.3600, -68.193
1349.3800, -68.230
1349.4000, -68.256
1349.4200, -68.261
1349.4400, -68.266
1349.4600, -68.269
1349.4800, -68.265
1349.5000, -68.330
1349.5200, -68.203
1349.5400, -68.391
1349.5600, -68.384
1349.5800, -68.328
1349.6000, -68.385
1349.6200, -68.360
1349.6400, -68.267
1349.6600, -68.397
1349.6800, -68.275
1349.7000, -68.320
1349.7200, -68.341
1349.7400, -68.402
1349.7600, -68.471
1349.7800, -68.369
1349.8000, -68.470
1349.8200, -68.400
1349.8400, -68.380
1349.8600, -68.382
1349.8800, -68.358
1349.9000, -68.472
1349.9200, -68.342
1349.9400, -68.399
1349.9600, -68.284
1349.9800, -68.308
1350.0000, -68.367
1350.0200, -68.346
1350.0400, -68.312
1350.0600, -68.263
1350.0800, -68.222
1350.1000, -68.242
1350.1200, -68.203
1350.1400, -68.244
1350.1600, -68.087
1350.1800, -68.087
1350.2000, -68.182
1350.2200, -68.278
1350.2400, -68.174
1350.2600, -68.168
1350.2800, -68.213
1350.3000, -68.170
1350.3200, -68.389
1350.3400, -68.306
1350.3600, -68.363
1350.3800, -68.351
1350.4000, -68.401
1350.4200, -68.493
1350.4400, -68.457
1350.4600, -68.570
1350.4800, -68.613
1350.5000, -68.607
1350.5200, -68.644
1350.5400, -68.624
1350.5600, -68.633
1350.5800, -68.663
1350.6000, -68.715
1350.6200, -68.609
1350.6400, -68.723
1350.6600, -68.659
1350.6800, -68.691
1350.7000, -68.759
1350.7200, -68.705
1350.7400, -68.680
1350.7600, -68.670
1350.7800, -68.815
1350.8000, -68.767
1350.8200, -68.748
1350.8400, -68.692
1350.8600, -68.637
1350.8800, -68.810
1350.9000, -68.646
1350.9200, -68.653
1350.9400, -68.737
1350.9600, -68.610
1350.9800, -68.746
1351.0000, -68.655
1351.0200, -68.730
1351.0400, -68.564
1351.0600, -68.552
1351.0800, -68.730
1351.1000, -68.502
1351.1200, -68.640
1351.1400, -68.603
1351.1600, -68.638
1351.1800, -68.609
1351.2000, -68.671
1351.2200, -68.689
1351.2400, -68.790
1351.2600, -68.795
1351.2800, -68.755
1351.3000, -68.712
1351.3200, -68.821
1351.3400, -68.739
1351.3600, -68.781
1351.3800, -68.883
1351.4000, -68.884
1351.4200, -68.867
1351.4400, -68.940
1351.4600, -69.019
1351.4800, -69.040
1351.5000, -69.167
1351.5200, -69.081
1351.5400, -69.307
1351.5600, -69.319
1351.5800, -69.405
1351.6000, -69.259
1351.6200, -69.264
1351.6400, -69.380
1351.6600, -69.585
1351.6800, -69.234
1351.7000, -69.528
1351.7200, -69.436
1351.7400, -69.430
1351.7600, -69.501
1351.7800, -69.505
1351.8000, -69.496
1351.8200, -69.719
1351.8400, -69.632
1351.8600, -69.717
1351.8800, -69.872
1351.9000, -69.806
1351.9200, -69.859
1351.9400, -69.828
1351.9600, -69.754
1351.9800, -69.748
1352.0000, -69.758
1352.0200, -69.732
1352.0400, -69.730
1352.0600, -69.677
1352.0800, -69.849
1352.1000, -69.700
1352.1200, -69.726
1352.1400, -69.790
1352.1600, -69.606
1352.1800, -69.795
1352.2000, -69.895
1352.2200, -69.832
1352.2400, -69.910
1352.2600, -69.906
1352.2800, -69.869
1352.3000, -69.934
1352.3200, -70.026
1352.3400, -70.046
1352.3600, -70.011
1352.3800, -70.190
1352.4000, -70.222
1352.4200, -70.344
1352.4400, -70.422
1352.4600, -70.347
1352.4800, -70.506
1352.5000, -70.604
1352.5200, -70.637
1352.5400, -70.752
1352.5600, -70.839
1352.5800, -71.048
1352.6000, -70.935
1352.6200, -71.081
1352.6400, -71.012
1352.6600, -71.067
1352.6800, -71.013
1352.7000, -71.080
1352.7200, -71.053
1352.7400, -71.106
1352.7600, -71.111
1352.7800, -71.135
1352.8000, -70.996
1352.8200, -70.958
1352.8400, -71.048
1352.8600, -71.071
1352.8800, -70.955
1352.9000, -71.195
1352.9200, -71.152
1352.9400, -71.270
1352.9600, -71.109
1352.9800, -71.238
1353.0000, -71.196
1353.0200, -71.189
1353.0400, -71.274
1353.0600, -71.343
1353.0800, -71.295
1353.1000, -71.347
1353.1200, -71.356
1353.1400, -71.462
1353.1600, -71.318
1353.1800, -71.516
1353.2000, -71.654
1353.2200, -71.529
1353.2400, -71.834
1353.2600, -71.825
1353.2800, -71.927
1353.3000, -71.810
1353.3200, -71.872
1353.3400, -71.863
1353.3600, -71.819
1353.3800, -71.909
1353.4000, -72.046
1353.4200, -72.017
1353.4400, -71.735
1353.4600, -71.874
1353.4800, -71.903
1353.5000, -71.815
1353.5200, -71.911
1353.5400, -72.042
1353.5600, -72.126
1353.5800, -72.046
1353.6000, -72.142
1353.6200, -72.071
1353.6400, -72.163
1353.6600, -72.280
1353.6800, -72.315
1353.7000, -72.333
1353.7200, -72.353
1353.7400, -72.386
1353.7600, -72.440
1353.7800, -72.473
1353.8000, -72.528
1353.8200, -72.578
1353.8400, -72.583
1353.8600, -72.599
1353.8800, -72.591
1353.9000, -72.549
1353.9200, -72.586
1353.9400, -72.568
1353.9600, -72.547
1353.9800, -72.444
1354.0000, -72.513
1354.0200, -72.416
1354.0400, -72.490
1354.0600, -72.533
1354.0800, -72.508
1354.1000, -72.584
1354.1200, -72.569
1354.1400, -72.551
1354.1600, -72.554
1354.1800, -72.544
1354.2000, -72.750
1354.2200, -72.668
1354.2400, -72.675
1354.2600, -72.708
1354.2800, -72.766
1354.3000, -72.858
1354.3200, -72.842
1354.3400, -72.935
1354.3600, -73.083
1354.3800, -73.019
1354.4000, -73.077
1354.4200, -73.159
1354.4400, -73.199
1354.4600, -73.248
1354.4800, -73.256
1354.5000, -73.254
1354.5200, -73.289
1354.5400, -73.305
1354.5600, -73.384
1354.5800, -73.342
1354.6000, -73.392
1354.6200, -73.395
1354.6400, -73.514
1354.6600, -73.557
1354.6800, -73.638
1354.7000, -73.596
1354.7200, -73.764
1354.7400, -73.782
1354.7600, -73.871
1354.7800, -73.931
1354.8000, -74.094
1354.8200, -74.115
1354.8400, -74.241
1354.8600, -74.224
1354.8800, -74.102
1354.9000, -74.097
1354.9200, -74.040
1354.9400, -74.109
1354.9600, -74.119
1354.9800, -74.098
1355.0000, -74.120
1355.0200, -74.103
1355.0400, -74.078
1355.0600, -74.046
1355.0800, -74.217
1355.1000, -74.198
1355.1200, -74.082
1355.1400, -74.209
1355.1600, -74.222
1355.1800, -74.007
1355.2000, -74.173
1355.2200, -74.060
1355.2400, -74.054
1355.2600, -74.139
1355.2800, -74.106
1355.3000, -73.954
1355.3200, -74.024
1355.3400, -74.034
1355.3600, -74.029
1355.3800, -74.207
1355.4000, -74.187
1355.4200, -74.170
1355.4400, -74.104
1355.4600, -74.200
1355.4800, -74.211
1355.5000, -74.302
1355.5200, -74.280
1355.5400, -74.316
1355.5600, -74.286
1355.5800, -74.473
1355.6000, -74.327
1355.6200, -74.417
1355.6400, -74.348
1355.6600, -74.467
1355.6800, -74.522
1355.7000, -74.510
1355.7200, -74.664
1355.7400, -74.927
1355.7600, -74.766
1355.7800, -75.019
1355.8000, -74.991
1355.8200, -75.109
1355.8400, -75.207
1355.8600, -75.421
1355.8800, -75.479
1355.9000, -75.618
1355.9200, -75.839
1355.9400, -75.526
1355.9600, -75.684
1355.9800, -75.545
1356.0000, -75.538
1356.0200, -75.369
1356.0400, -75.357
1356.0600, -75.168
1356.0800, -75.189
1356.1000, -74.967
1356.1200, -74.802
1356.1400, -74.942
1356.1600, -74.756
1356.1800, -74.662
1356.2000, -74.653
1356.2200, -74.661
1356.2400, -74.636
1356.2600, -74.687
1356.2800, -74.755
1356.3000, -74.663
1356.3200, -74.681
1356.3400, -74.768
1356.3600, -74.674
1356.3800, -74.909
1356.4000, -74.775
1356.4200, -74.753
1356.4400, -74.832
1356.4600, -74.749
1356.4800, -74.660
1356.5000, -74.802
1356.5200, -74.735
1356.5400, -74.645
1356.5600, -74.756
1356.5800, -74.615
1356.6000, -74.618
1356.6200, -74.703
1356.6400, -74.604
1356.6600, -74.757
1356.6800, -74.540
1356.7000, -74.595
1356.7200, -74.505
1356.7400, -74.575
1356.7600, -74.508
1356.7800, -74.534
1356.8000, -74.479
1356.8200, -74.483
1356.8400, -74.440
1356.8600, -74.441
1356.8800, -74.365
1356.9000, -74.295
1356.9200, -74.401
1356.9400, -74.227
1356.9600, -74.335
1356.9800, -74.181
1357.0000, -74.153
1357.0200, -74.170
1357.0400, -74.175
1357.0600, -74.191
1357.0800, -74.190
1357.1000, -74.273
1357.1200, -74.336
1357.1400, -74.477
1357.1600, -74.490
1357.1800, -74.326
1357.2000, -74.336
1357.2200, -74.506
1357.2400, -74.341
1357.2600, -74.264
1357.2800, -74.107
1357.3000, -74.075
1357.3200, -73.915
1357.3400, -73.869
1357.3600, -73.669
1357.3800, -73.573
1357.4000, -73.510
1357.4200, -73.455
1357.4400, -73.222
1357.4600, -73.234
1357.4800, -73.106
1357.5000, -73.084
1357.5200, -73.137
1357.5400, -73.136
1357.5600, -73.081
1357.5800, -73.122
1357.6000, -73.120
1357.6200, -73.116
1357.6400, -73.008
1357.6600, -72.870
1357.6800, -73.035
1357.7000, -72.796
1357.7200, -72.886
1357.7400, -72.906
1357.7600, -72.779
1357.7800, -72.868
1357.8000, -72.833
1357.8200, -72.736
1357.8400, -72.786
1357.8600, -72.751
1357.8800, -72.709
1357.9000, -72.696
1357.9200, -72.592
1357.9400, -72.387
1357.9600, -72.417
1357.9800, -72.313
1358.0000, -72.280
1358.0200, -72.125
1358.0400, -71.959
1358.0600, -71.804
1358.0800, -71.764
1358.1000, -71.690
1358.1200, -71.624
1358.1400, -71.670
1358.1600, -71.437
1358.1800, -71.502
1358.2000, -71.420
1358.2200, -71.389
1358.2400, -71.412
1358.2600, -71.200
1358.2800, -71.312
1358.3000, -71.241
1358.3200, -71.303
1358.3400, -71.184
1358.3600, -71.221
1358.3800, -71.233
1358.4000, -71.188
1358.4200, -71.268
1358.4400, -71.161
1358.4600, -71.296
1358.4800, -71.328
1358.5000, -71.472
1358.5200, -71.412
1358.5400, -71.407
1358.5600, -71.366
1358.5800, -71.215
1358.6000, -71.233
1358.6200, -70.998
1358.6400, -70.937
1358.6600, -70.910
1358.6800, -70.743
1358.7000, -70.791
1358.7200, -70.766
1358.7400, -70.662
1358.7600, -70.554
1358.7800, -70.577
1358.8000, -70.526
1358.8200, -70.563
1358.8400, -70.481
1358.8600, -70.553
1358.8800, -70.403
1358.9000, -70.366
1358.9200, -70.452
1358.9400, -70.343
1358.9600, -70.278
1358.9800, -70.272
1359.0000, -70.016
1359.0200, -70.160
1359.0400, -70.004
1359.0600, -69.967
1359.0800, -69.923
1359.1000, -69.728
1359.1200, -69.779
1359.1400, -69.688
1359.1600, -69.703
1359.1800, -69.747
1359.2000, -69.692
1359.2200, -69.626
1359.2400, -69.649
1359.2600, -69.589
1359.2800, -69.416
1359.3000, -69.485
1359.3200, -69.519
1359.3400, -69.604
1359.3600, -69.459
1359.3800, -69.425
1359.4000, -69.538
1359.4200, -69.498
1359.4400, -69.565
1359.4600, -69.557
1359.4800, -69.693
1359.5000, -69.812
1359.5200, -69.836
1359.5400, -69.941
1359.5600, -70.124
1359.5800, -70.258
1359.6000, -70.383
1359.6200, -70.343
1359.6400, -70.229
1359.6600, -70.160
1359.6800, -70.054
1359.7000, -70.043
1359.7200, -70.138
1359.7400, -69.939
1359.7600, -69.887
1359.7800, -69.896
1359.8000, -69.854
1359.8200, -69.675
1359.8400, -69.607
1359.8600, -69.514
1359.8800, -69.405
1359.9000, -69.426
1359.9200, -69.300
1359.9400, -69.288
1359.9600, -69.123
1359.9800, -69.012
1360.0000, -69.079
1360.0200, -68.977
1360.0400, -68.893
1360.0600, -68.991
1360.0800, -68.869
1360.1000, -68.844
1360.1200, -68.762
1360.1400, -68.864
1360.1600, -68.879
1360.1800, -68.791
1360.2000, -68.680
1360.2200, -68.635
1360.2400, -68.809
1360.2600, -68.797
1360.2800, -68.823
1360.3000, -68.711
1360.3200, -68.725
1360.3400, -68.831
1360.3600, -68.650
1360.3800, -68.881
1360.4000, -68.761
1360.4200, -68.684
1360.4400, -68.720
1360.4600, -68.691
1360.4800, -68.619
1360.5000, -68.690
1360.5200, -68.666
1360.5400, -68.636
1360.5600, -68.635
1360.5800, -68.652
1360.6000, -68.517
1360.6200, -68.608
1360.6400, -68.649
1360.6600, -68.517
1360.6800, -68.546
1360.7000, -68.561
1360.7200, -68.670
1360.7400, -68.752
1360.7600, -68.747
1360.7800, -68.802
1360.8000, -68.723
1360.8200, -68.901
1360.8400, -68.963
1360.8600, -68.994
1360.8800, -69.158
1360.9000, -69.175
1360.9200, -69.380
1360.9400, -69.345
1360.9600, -69.219
1360.9800, -69.173
1361.0000, -69.005
1361.0200, -68.993
1361.0400, -68.959
1361.0600, -69.032
1361.0800, -69.046
1361.1000, -68.882
1361.1200, -68.734
1361.1400, -68.674
1361.1600, -68.790
1361.1800, -68.816
1361.2000, -68.794
1361.2200, -68.624
1361.2400, -68.722
1361.2600, -68.620
1361.2800, -68.443
1361.3000, -68.455
1361.3200, -68.416
1361.3400, -68.449
1361.3600, -68.400
1361.3800, -68.328
1361.4000, -68.250
1361.4200, -68.199
1361.4400, -68.291
1361.4600, -68.243
1361.4800, -68.199
1361.5000, -68.176
1361.5200, -68.297
1361.5400, -68.231
1361.5600, -68.269
1361.5800, -68.281
1361.6000, -68.404
1361.6200, -68.515
1361.6400, -68.467
1361.6600, -68.581
1361.6800, -68.740
1361.7000, -68.843
1361.7200, -68.999
1361.7400, -69.093
1361.7600, -69.285
1361.7800, -69.345
1361.8000, -69.300
1361.8200, -69.218
1361.8400, -69.074
1361.8600, -68.921
1361.8800, -68.963
1361.9000, -68.862
1361.9200, -68.775
1361.9400, -68.696
1361.9600, -68.590
1361.9800, -68.301
1362.0000, -68.359
1362.0200, -68.355
1362.0400, -68.334
1362.0600, -68.467
1362.0800, -68.517
1362.1000, -68.446
1362.1200, -68.535
1362.1400, -68.670
1362.1600, -68.499
1362.1800, -68.435
1362.2000, -68.393
1362.2200, -68.333
1362.2400, -68.269
1362.2600, -68.371
1362.2800, -68.373
1362.3000, -68.490
1362.3200, -68.439
1362.3400, -68.539
1362.3600, -68.713
1362.3800, -68.816
1362.4000, -69.045
1362.4200, -69.300
1362.4400, -69.530
1362.4600, -69.753
1362.4800, -69.856
1362.5000, -69.943
1362.5200, -69.895
1362.5400, -69.851
1362.5600, -69.671
1362.5800, -69.562
1362.6000, -69.440
1362.6200, -69.096
1362.6400, -68.892
1362.6600, -68.840
1362.6800, -68.738
1362.7000, -68.525
1362.7200, -68.394
1362.7400, -68.335
1362.7600, -68.295
1362.7800, -68.373
1362.8000, -68.302
1362.8200, -68.364
1362.8400, -68.440
1362.8600, -68.437
1362.8800, -68.435
1362.9000, -68.367
1362.9200, -68.383
1362.9400, -68.413
1362.9600, -68.423
1362.9800, -68.344
1363.0000, -68.428
1363.0200, -68.337
1363.0400, -68.346
1363.0600, -68.208
1363.0800, -68.252
1363.1000, -68.313
1363.1200, -68.156
1363.1400, -68.143
1363.1600, -68.196
1363.1800, -68.038
1363.2000, -68.058
1363.2200, -68.145
1363.2400, -68.217
1363.2600, -68.060
1363.2800, -68.094
1363.3000, -68.140
1363.3200, -68.072
1363.3400, -68.144
1363.3600, -68.208
1363.3800, -68.086
1363.4000, -68.199
1363.4200, -68.046
1363.4400, -68.132
1363.4600, -68.130
1363.4800, -68.148
1363.5000, -68.195
1363.5200, -68.151
1363.5400, -68.297
1363.5600, -68.323
1363.5800, -68.380
1363.6000, -68.205
1363.6200, -68.402
1363.6400, -68.306
1363.6600, -68.466
1363.6800, -68.505
1363.7000, -68.375
1363.7200, -68.520
1363.7400, -68.598
1363.7600, -68.563
1363.7800, -68.538
1363.8000, -68.491
1363.8200, -68.566
1363.8400, -68.528
1363.8600, -68.547
1363.8800, -68.636
1363.9000, -68.556
1363.9200, -68.698
1363.9400, -68.638
1363.9600, -68.669
1363.9800, -68.680
1364.0000, -68.707
1364.0200, -68.681
1364.0400, -68.732
1364.0600, -68.673
1364.0800, -68.799
1364.1000, -68.762
1364.1200, -68.837
1364.1400, -68.879
1364.1600, -68.912
1364.1800, -68.856
1364.2000, -68.902
1364.2200, -68.890
1364.2400, -68.987
1364.2600, -69.123
1364.2800, -69.015
1364.3000, -69.100
1364.3200, -69.224
1364.3400, -69.114
1364.3600, -69.063
1364.3800, -69.082
1364.4000, -69.080
1364.4200, -69.154
1364.4400, -69.125
1364.4600, -69.031
1364.4800, -69.113
1364.5000, -69.134
1364.5200, -69.019
1364.5400, -69.120
1364.5600, -69.207
1364.5800, -69.389
1364.6000, -69.390
1364.6200, -69.655
1364.6400, -69.796
1364.6600, -70.034
1364.6800, -70.262
1364.7000, -70.489
1364.7200, -70.705
1364.7400, -70.967
1364.7600, -71.158
1364.7800, -71.211
1364.8000, -71.074
1364.8200, -70.992
1364.8400, -70.901
1364.8600, -70.707
1364.8800, -70.649
1364.9000, -70.531
1364.9200, -70.479
1364.9400, -70.356
1364.9600, -70.299
1364.9800, -70.185
1365.0000, -69.889
1365.0200, -70.067
1365.0400, -69.929
1365.0600, -69.797
1365.0800, -69.825
1365.1000, -69.935
1365.1200, -69.864
1365.1400, -69.932
1365.1600, -69.889
1365.1800, -69.889
1365.2000, -69.849
1365.2200, -69.924
1365.2400, -69.919
1365.2600, -69.963
1365.2800, -69.867
1365.3000, -69.979
1365.3200, -69.950
1365.3400, -70.053
1365.3600, -70.096
1365.3800, -70.266
1365.4000, -70.334
1365.4200, -70.398
1365.4400, -70.511
1365.4600, -70.664
1365.4800, -70.571
1365.5000, -70.744
1365.5200, -70.748
1365.5400, -70.828
1365.5600, -70.775
1365.5800, -70.782
1365.6000, -70.919
1365.6200, -71.092
1365.6400, -70.945
1365.6600, -70.984
1365.6800, -71.026
1365.7000, -70.989
1365.7200, -70.899
1365.7400, -70.989
1365.7600, -70.863
1365.7800, -70.976
1365.8000, -70.941
1365.8200, -70.866
1365.8400, -70.850
1365.8600, -70.898
1365.8800, -70.768
1365.9000, -70.832
1365.9200, -70.765
1365.9400, -70.845
1365.9600, -70.792
1365.9800, -70.917
1366.0000, -70.908
1366.0200, -70.955
1366.0400, -70.881
1366.0600, -70.949
1366.0800, -70.949
1366.1000, -70.904
1366.1200, -70.936
1366.1400, -70.795
1366.1600, -70.914
1366.1800, -71.031
1366.2000, -71.043
1366.2200, -71.015
1366.2400, -71.079
1366.2600, -71.050
1366.2800, -71.066
1366.3000, -71.126
1366.3200, -71.210
1366.3400, -71.245
1366.3600, -71.188
1366.3800, -71.294
1366.4000, -71.193
1366.4200, -71.338
1366.4400, -71.336
1366.4600, -71.301
1366.4800, -71.325
1366.5000, -71.409
1366.5200, -71.355
1366.5400, -71.385
1366.5600, -71.309
1366.5800, -71.333
1366.6000, -71.452
1366.6200, -71.389
1366.6400, -71.431
1366.6600, -71.418
1366.6800, -71.478
1366.7000, -71.553
1366.7200, -71.649
1366.7400, -71.574
1366.7600, -71.695
1366.7800, -71.792
1366.8000, -71.897
1366.8200, -71.763
1366.8400, -71.825
1366.8600, -71.927
1366.8800, -72.072
1366.9000, -72.151
1366.9200, -72.112
1366.9400, -72.354
1366.9600, -72.444
1366.9800, -72.527
1367.0000, -72.437
1367.0200, -72.598
1367.0400, -72.486
1367.0600, -72.408
1367.0800, -72.443
1367.1000, -72.446
1367.1200, -72.521
1367.1400, -72.408
1367.1600, -72.375
1367.1800, -72.333
1367.2000, -72.348
1367.2200, -72.246
1367.2400, -72.355
1367.2600, -72.383
1367.2800, -72.277
1367.3000, -72.221
1367.3200, -72.303
1367.3400, -72.282
1367.3600, -72.339
1367.3800, -72.390
1367.4000, -72.373
1367.4200, -72.503
1367.4400, -72.401
1367.4600, -72.536
1367.4800, -72.543
1367.5000, -72.620
1367.5200, -72.794
1367.5400, -72.704
1367.5600, -72.864
1367.5800, -72.910
1367.6000, -72.904
1367.6200, -73.131
1367.6400, -73.322
1367.6600, -73.297
1367.6800, -73.375
1367.7000, -73.277
1367.7200, -73.419
1367.7400, -73.282
1367.7600, -73.384
1367.7800, -73.496
1367.8000, -73.459
1367.8200, -73.486
1367.8400, -73.601
1367.8600, -73.616
1367.8800, -73.616
1367.9000, -73.759
1367.9200, -73.854
1367.9400, -73.984
1367.9600, -74.097
1367.9800, -74.032
1368.0000, -74.038
1368.0200, -73.923
1368.0400, -73.881
1368.0600, -73.925
1368.0800, -73.870
1368.1000, -73.781
1368.1200, -73.551
1368.1400, -73.642
1368.1600, -73.498
1368.1800, -73.420
1368.2000, -73.455
1368.2200, -73.593
1368.2400, -73.549
1368.2600, -73.470
1368.2800, -73.504
1368.3000, -73.399
1368.3200, -73.704
1368.3400, -73.559
1368.3600, -73.518
1368.3800, -73.547
1368.4000, -73.612
1368.4200, -73.570
1368.4400, -73.637
1368.4600, -73.685
1368.4800, -73.754
1368.5000, -73.671
1368.5200, -73.791
1368.5400, -73.798
1368.5600, -73.927
1368.5800, -74.128
1368.6000, -74.242
1368.6200, -74.508
1368.6400, -74.705
1368.6600, -74.923
1368.6800, -75.003
1368.7000, -75.067
1368.7200, -74.922
1368.7400, -74.745
1368.7600, -74.683
1368.7800, -74.516
1368.8000, -74.621
1368.8200, -74.433
1368.8400, -74.328
1368.8600, -73.986
1368.8800, -74.014
1368.9000, -73.963
1368.9200, -73.743
1368.9400, -73.763
1368.9600, -73.819
1368.9800, -73.661
1369.0000, -73.676
1369.0200, -73.717
1369.0400, -73.578
1369.0600, -73.628
1369.0800, -73.577
1369.1000, -73.507
1369.1200, -73.615
1369.1400, -73.470
1369.1600, -73.541
1369.1800, -73.473
1369.2000, -73.367
1369.2200, -73.372
1369.2400, -73.424
1369.2600, -73.371
1369.2800, -73.381
1369.3000, -73.285
1369.3200, -73.255
1369.3400, -73.315
1369.3600, -73.228
1369.3800, -73.158
1369.4000, -73.105
1369.4200, -73.201
1369.4400, -73.171
1369.4600, -73.101
1369.4800, -73.055
1369.5000, -73.039
1369.5200, -72.994
1369.5400, -73.051
1369.5600, -72.922
1369.5800, -72.821
1369.6000, -72.847
1369.6200, -72.843
1369.6400, -72.966
1369.6600, -72.877
1369.6800, -72.687
1369.7000, -72.803
1369.7200, -72.576
1369.7400, -72.749
1369.7600, -72.545
1369.7800, -72.539
1369.8000, -72.597
1369.8200, -72.612
1369.8400, -72.496
1369.8600, -72.510
1369.8800, -72.604
1369.9000, -72.510
1369.9200, -72.696
1369.9400, -72.673
1369.9600, -72.803
1369.9800, -73.003
1370.0000, -73.007
1370.0200, -73.137
1370.0400, -73.198
1370.0600, -73.210
1370.0800, -73.256
1370.1000, -73.141
1370.1200, -72.868
1370.1400, -72.702
1370.1600, -72.739
1370.1800, -72.594
1370.2000, -72.549
1370.2200, -72.484
1370.2400, -72.191
1370.2600, -71.954
1370.2800, -71.963
1370.3000, -71.840
1370.3200, -71.754
1370.3400, -71.835
1370.3600, -71.760
1370.3800, -71.571
1370.4000, -71.552
1370.4200, -71.646
1370.4400, -71.562
1370.4600, -71.328
1370.4800, -71.365
1370.5000, -71.375
1370.5200, -71.378
1370.5400, -71.217
1370.5600, -71.218
1370.5800, -71.210
1370.6000, -71.140
1370.6200, -71.015
1370.6400, -71.063
1370.6600, -71.017
1370.6800, -71.106
1370.7000, -71.120
1370.7200, -71.019
1370.7400, -70.923
1370.7600, -70.932
1370.7800, -70.961
1370.8000, -70.886
1370.8200, -70.770
1370.8400, -70.843
1370.8600, -70.831
1370.8800, -70.870
1370.9000, -71.005
1370.9200, -71.026
1370.9400, -71.123
1370.9600, -71.230
1370.9800, -71.250
1371.0000, -71.532
1371.0200, -71.576
1371.0400, -71.767
1371.0600, -71.844
1371.0800, -71.773
1371.1000, -71.682
1371.1200, -71.260
1371.1400, -71.173
1371.1600, -71.081
1371.1800, -71.041
1371.2000, -70.851
1371.2200, -70.736
1371.2400, -70.504
1371.2600, -70.355
1371.2800, -70.344
1371.3000, -70.267
1371.3200, -70.150
1371.3400, -70.130
1371.3600, -70.056
1371.3800, -70.186
1371.4000, -70.035
1371.4200, -69.982
1371.4400, -69.937
1371.4600, -69.777
1371.4800, -69.717
1371.5000, -69.784
1371.5200, -69.766
1371.5400, -69.642
1371.5600, -69.612
1371.5800, -69.492
1371.6000, -69.442
1371.6200, -69.394
1371.6400, -69.376
1371.6600, -69.532
1371.6800, -69.445
1371.7000, -69.351
1371.7200, -69.456
1371.7400, -69.424
1371.7600, -69.355
1371.7800, -69.437
1371.8000, -69.337
1371.8200, -69.232
1371.8400, -69.373
1371.8600, -69.246
1371.8800, -69.229
1371.9000, -69.139
1371.9200, -69.182
1371.9400, -69.205
1371.9600, -69.125
1371.9800, -69.027
1372.0000, -68.996
1372.0200, -69.065
1372.0400, -68.967
1372.0600, -69.027
1372.0800, -69.076
1372.1000, -69.150
1372.1200, -69.133
1372.1400, -69.120
1372.1600, -69.205
1372.1800, -69.199
1372.2000, -69.218
1372.2200, -69.095
1372.2400, -69.204
1372.2600, -69.140
1372.2800, -69.014
1372.3000, -69.073
1372.3200, -69.109
1372.3400, -68.986
1372.3600, -68.901
1372.3800, -68.748
1372.4000, -68.755
1372.4200, -68.747
1372.4400, -68.602
1372.4600, -68.643
1372.4800, -68.485
1372.5000, -68.485
1372.5200, -68.466
1372.5400, -68.415
1372.5600, -68.201
1372.5800, -68.188
1372.6000, -68.271
1372.6200, -68.180
1372.6400, -68.047
1372.6600, -68.061
1372.6800, -68.092
1372.7000, -68.082
1372.7200, -67.956
1372.7400, -67.993
1372.7600, -68.078
1372.7800, -67.948
1372.8000, -67.944
1372.8200, -67.998
1372.8400, -67.968
1372.8600, -68.001
1372.8800, -68.039
1372.9000, -68.111
1372.9200, -67.961
1372.9400, -68.013
1372.9600, -67.989
1372.9800, -68.008
1373.0000, -68.001
1373.0200, -67.879
1373.0400, -67.959
1373.0600, -68.003
1373.0800, -67.912
1373.1000, -68.087
1373.1200, -67.988
1373.1400, -67.919
1373.1600, -67.879
1373.1800, -67.849
1373.2000, -67.863
1373.2200, -67.728
1373.2400, -67.800
1373.2600, -67.841
1373.2800, -67.653
1373.3000, -67.732
1373.3200, -67.606
1373.3400, -67.740
1373.3600, -67.699
1373.3800, -67.712
1373.4000, -67.721
1373.4200, -67.691
1373.4400, -67.663
1373.4600, -67.686
1373.4800, -67.632
1373.5000, -67.657
1373.5200, -67.619
1373.5400, -67.667
1373.5600, -67.660
1373.5800, -67.510
1373.6000, -67.486
1373.6200, -67.412
1373.6400, -67.487
1373.6600, -67.357
1373.6800, -67.291
1373.7000, -67.361
1373.7200, -67.414
1373.7400, -67.306
1373.7600, -67.226
1373.7800, -67.361
1373.8000, -67.335
1373.8200, -67.323
1373.8400, -67.209
1373.8600, -67.242
1373.8800, -67.285
1373.9000, -67.405
1373.9200, -67.331
1373.9400, -67.200
1373.9600, -67.278
1373.9800, -67.343
1374.0000, -67.257
1374.0200, -67.257
1374.0400, -67.436
1374.0600, -67.191
1374.0800, -67.189
1374.1000, -67.292
1374.1200, -67.270
1374.1400, -67.227
1374.1600, -67.265
1374.1800, -67.265
1374.2000, -67.083
1374.2200, -67.257
1374.2400, -67.214
1374.2600, -67.235
1374.2800, -67.227
1374.3000, -67.202
1374.3200, -67.063
1374.3400, -67.114
1374.3600, -67.122
1374.3800, -67.052
1374.4000, -67.074
1374.4200, -66.983
1374.4400, -67.137
1374.4600, -67.199
1374.4800, -67.106
1374.5000, -67.082
1374.5200, -67.055
1374.5400, -66.982
1374.5600, -67.042
1374.5800, -67.038
1374.6000, -66.851
1374.6200, -66.882
1374.6400, -66.800
1374.6600, -66.834
1374.6800, -66.839
1374.7000, -66.860
1374.7200, -66.776
1374.7400, -66.812
1374.7600, -66.768
1374.7800, -66.739
1374.8000, -66.634
1374.8200, -66.778
1374.8400, -66.719
1374.8600, -66.709
1374.8800, -66.737
1374.9000, -66.755
1374.9200, -66.732
1374.9400, -66.785
1374.9600, -66.874
1374.9800, -66.955
1375.0000, -66.964
1375.0200, -67.019
1375.0400, -67.090
1375.0600, -67.010
1375.0800, -67.029
1375.1000, -66.985
1375.1200, -66.920
1375.1400, -66.732
1375.1600, -66.735
1375.1800, -66.815
1375.2000, -66.809
1375.2200, -66.744
1375.2400, -66.696
1375.2600, -66.579
1375.2800, -66.470
1375.3000, -66.580
1375.3200, -66.550
1375.3400, -66.501
1375.3600, -66.448
1375.3800, -66.510
1375.4000, -66.574
1375.4200, -66.536
1375.4400, -66.653
1375.4600, -66.518
1375.4800, -66.585
1375.5000, -66.427
1375.5200, -66.511
1375.5400, -66.572
1375.5600, -66.538
1375.5800, -66.375
1375.6000, -66.561
1375.6200, -66.554
1375.6400, -66.649
1375.6600, -66.621
1375.6800, -66.607
1375.7000, -66.669
1375.7200, -66.636
1375.7400, -66.683
1375.7600, -66.735
1375.7800, -66.643
1375.8000, -66.715
1375.8200, -66.732
1375.8400, -66.790
1375.8600, -66.816
1375.8800, -66.890
1375.9000, -66.784
1375.9200, -67.057
1375.9400, -67.052
1375.9600, -67.121
1375.9800, -66.979
1376.0000, -67.164
1376.0200, -67.193
1376.0400, -67.212
1376.0600, -67.171
1376.0800, -67.145
1376.1000, -67.108
1376.1200, -67.170
1376.1400, -67.290
1376.1600, -67.159
1376.1800, -67.157
1376.2000, -67.151
1376.2200, -67.116
1376.2400, -67.164
1376.2600, -67.254
1376.2800, -67.189
1376.3000, -67.193
1376.3200, -67.301
1376.3400, -67.137
1376.3600, -67.244
1376.3800, -67.241
1376.4000, -67.210
1376.4200, -67.185
1376.4400, -67.321
1376.4600, -67.195
1376.4800, -67.227
1376.5000, -67.208
1376.5200, -67.232
1376.5400, -67.316
1376.5600, -67.310
1376.5800, -67.310
1376.6000, -67.293
1376.6200, -67.254
1376.6400, -67.235
1376.6600, -67.523
1376.6800, -67.330
1376.7000, -67.352
1376.7200, -67.314
1376.7400, -67.286
1376.7600, -67.358
1376.7800, -67.421
1376.8000, -67.490
1376.8200, -67.535
1376.8400, -67.474
1376.8600, -67.479
1376.8800, -67.555
1376.9000, -67.525
1376.9200, -67.578
1376.9400, -67.773
1376.9600, -67.721
1376.9800, -67.837
1377.0000, -68.015
1377.0200, -68.080
1377.0400, -68.163
1377.0600, -68.315
1377.0800, -68.297
1377.1000, -68.283
1377.1200, -68.274
1377.1400, -68.281
1377.1600, -68.138
1377.1800, -68.204
1377.2000, -68.206
1377.2200, -68.177
1377.2400, -68.180
1377.2600, -68.158
1377.2800, -68.058
1377.3000, -68.154
1377.3200, -68.146
1377.3400, -68.178
1377.3600, -68.168
1377.3800, -68.155
1377.4000, -68.108
1377.4200, -68.084
1377.4400, -68.119
1377.4600, -68.116
1377.4800, -68.098
1377.5000, -68.026
1377.5200, -68.162
1377.5400, -68.121
1377.5600, -68.233
1377.5800, -68.257
1377.6000, -68.142
1377.6200, -68.156
1377.6400, -68.191
1377.6600, -68.203
1377.6800, -68.166
1377.7000, -68.214
1377.7200, -68.205
1377.7400, -68.251
1377.7600, -68.237
1377.7800, -68.251
1377.8000, -68.294
1377.8200, -68.296
1377.8400, -68.373
1377.8600, -68.362
1377.8800, -68.376
1377.9000, -68.438
1377.9200, -68.464
1377.9400, -68.360
1377.9600, -68.358
1377.9800, -68.450
1378.0000, -68.550
1378.0200, -68.624
1378.0400, -68.563
1378.0600, -68.686
1378.0800, -68.593
1378.1000, -68.621
1378.1200, -68.709
1378.1400, -68.639
1378.1600, -68.733
1378.1800, -68.824
1378.2000, -68.779
1378.2200, -68.806
1378.2400, -68.676
1378.2600, -68.920
1378.2800, -68.949
1378.3000, -68.965
1378.3200, -68.916
1378.3400, -68.905
1378.3600, -68.940
1378.3800, -69.039
1378.4000, -69.003
1378.4200, -69.087
1378.4400, -69.146
1378.4600, -69.035
1378.4800, -69.179
1378.5000, -69.175
1378.5200, -69.306
1378.5400, -69.286
1378.5600, -69.295
1378.5800, -69.480
1378.6000, -69.393
1378.6200, -69.532
1378.6400, -69.757
1378.6600, -69.608
1378.6800, -69.654
1378.7000, -69.677
1378.7200, -69.726
1378.7400, -69.569
1378.7600, -69.734
1378.7800, -69.773
1378.8000, -69.905
1378.8200, -69.845
1378.8400, -69.904
1378.8600, -69.796
1378.8800, -69.937
1378.9000, -70.000
1378.9200, -69.888
1378.9400, -69.991
1378.9600, -69.916
1378.9800, -69.989
1379.0000, -69.992
1379.0200, -69.908
1379.0400, -69.890
1379.0600, -69.885
1379.0800, -69.723
1379.1000, -69.866
1379.1200, -69.851
1379.1400, -69.748
1379.1600, -69.895
1379.1800, -69.890
1379.2000, -69.811
1379.2200, -69.771
1379.2400, -69.854
1379.2600, -69.868
1379.2800, -69.833
1379.3000, -69.815
1379.3200, -69.865
1379.3400, -69.873
1379.3600, -70.010
1379.3800, -69.968
1379.4000, -69.994
1379.4200, -70.082
1379.4400, -69.985
1379.4600, -70.033
1379.4800, -70.046
1379.5000, -70.151
1379.5200, -70.099
1379.5400, -70.224
1379.5600, -70.191
1379.5800, -69.999
1379.6000, -70.174
1379.6200, -70.159
1379.6400, -70.237
1379.6600, -70.225
1379.6800, -70.259
1379.7000, -70.178
1379.7200, -70.171
1379.7400, -70.227
1379.7600, -70.164
1379.7800, -70.171
1379.8000, -70.299
1379.8200, -70.253
1379.8400, -70.278
1379.8600, -70.280
1379.8800, -70.351
1379.9000, -70.395
1379.9200, -70.263
1379.9400, -70.360
1379.9600, -70.355
1379.9800, -70.428
1380.0000, -70.484
1380.0200, -70.650
1380.0400, -70.563
1380.0600, -70.575
1380.0800, -70.597
1380.1000, -70.707
1380.1200, -70.733
1380.1400, -70.791
1380.1600, -70.946
1380.1800, -70.823
1380.2000, -71.042
1380.2200, -71.054
1380.2400, -71.126
1380.2600, -71.273
1380.2800, -71.267
1380.3000, -71.298
1380.3200, -71.202
1380.3400, -71.224
1380.3600, -71.333
1380.3800, -71.304
1380.4000, -71.311
1380.4200, -71.423
1380.4400, -71.356
1380.4600, -71.277
1380.4800, -71.469
1380.5000, -71.523
1380.5200, -71.678
1380.5400, -71.622
1380.5600, -71.852
1380.5800, -72.014
1380.6000, -72.092
1380.6200, -72.281
1380.6400, -72.411
1380.6600, -72.705
1380.6800, -72.962
1380.7000, -73.115
1380.7200, -73.351
1380.7400, -73.555
1380.7600, -73.579
1380.7800, -73.482
1380.8000, -73.545
1380.8200, -73.708
1380.8400, -73.730
1380.8600, -73.767
1380.8800, -73.486
1380.9000, -73.293
1380.9200, -72.991
1380.9400, -72.801
1380.9600, -72.661
1380.9800, -72.685
1381.0000, -72.660
1381.0200, -72.550
1381.0400, -72.484
1381.0600, -72.398
1381.0800, -72.388
1381.1000, -72.457
1381.1200, -72.420
1381.1400, -72.488
1381.1600, -72.627
1381.1800, -72.652
1381.2000, -72.848
1381.2200, -72.894
1381.2400, -72.953
1381.2600, -72.964
1381.2800, -72.837
1381.3000, -72.753
1381.3200, -72.727
1381.3400, -72.862
1381.3600, -72.713
1381.3800, -72.686
1381.4000, -72.524
1381.4200, -72.596
1381.4400, -72.596
1381.4600, -72.617
1381.4800, -72.491
1381.5000, -72.562
1381.5200, -72.605
1381.5400, -72.607
1381.5600, -72.556
1381.5800, -72.546
1381.6000, -72.551
1381.6200, -72.602
1381.6400, -72.646
1381.6600, -72.575
1381.6800, -72.507
1381.7000, -72.524
1381.7200, -72.473
1381.7400, -72.608
1381.7600, -72.433
1381.7800, -72.512
1381.8000, -72.501
1381.8200, -72.472
1381.8400, -72.469
1381.8600, -72.405
1381.8800, -72.398
1381.9000, -72.345
1381.9200, -72.502
1381.9400, -72.469
1381.9600, -72.446
1381.9800, -72.442
1382.0000, -72.394
1382.0200, -72.463
1382.0400, -72.352
1382.0600, -72.345
1382.0800, -72.277
1382.1000, -72.274
1382.1200, -72.415
1382.1400, -72.322
1382.1600, -72.170
1382.1800, -72.207
1382.2000, -72.275
1382.2200, -72.162
1382.2400, -72.139
1382.2600, -72.027
1382.2800, -72.144
1382.3000, -72.144
1382.3200, -72.146
1382.3400, -71.937
1382.3600, -72.071
1382.3800, -71.993
1382.4000, -71.978
1382.4200, -71.983
1382.4400, -72.295
1382.4600, -72.040
1382.4800, -72.313
1382.5000, -72.429
1382.5200, -72.423
1382.5400, -72.619
1382.5600, -72.660
1382.5800, -72.595
1382.6000, -72.662
1382.6200, -72.623
1382.6400, -72.583
1382.6600, -72.680
1382.6800, -72.827
1382.7000, -72.893
1382.7200, -73.012
1382.7400, -72.976
1382.7600, -73.045
1382.7800, -73.052
1382.8000, -73.128
1382.8200, -73.149
1382.8400, -73.181
1382.8600, -72.928
1382.8800, -72.782
1382.9000, -72.633
1382.9200, -72.287
1382.9400, -72.317
1382.9600, -72.221
1382.9800, -72.074
1383.0000, -71.883
1383.0200, -71.850
1383.0400, -71.742
1383.0600, -71.578
1383.0800, -71.549
1383.1000, -71.292
1383.1200, -71.323
1383.1400, -71.076
1383.1600, -71.087
1383.1800, -70.970
1383.2000, -70.931
1383.2200, -70.804
1383.2400, -70.697
1383.2600, -70.634
1383.2800, -70.490
1383.3000, -70.531
1383.3200, -70.388
1383.3400, -70.462
1383.3600, -70.261
1383.3800, -70.246
1383.4000, -70.226
1383.4200, -70.124
1383.4400, -70.218
1383.4600, -70.193
1383.4800, -70.043
1383.5000, -70.111
1383.5200, -70.100
1383.5400, -70.140
1383.5600, -70.060
1383.5800, -70.158
1383.6000, -70.022
1383.6200, -70.149
1383.6400, -69.959
1383.6600, -69.995
1383.6800, -70.034
1383.7000, -69.954
1383.7200, -69.832
1383.7400, -69.855
1383.7600, -69.729
1383.7800, -69.781
1383.8000, -69.745
1383.8200, -69.761
1383.8400, -69.664
1383.8600, -69.765
1383.8800, -69.883
1383.9000, -69.843
1383.9200, -69.973
1383.9400, -70.118
1383.9600, -70.139
1383.9800, -70.153
1384.0000, -70.031
1384.0200, -69.844
1384.0400, -69.724
1384.0600, -69.658
1384.0800, -69.513
1384.1000, -69.459
1384.1200, -69.445
1384.1400, -69.165
1384.1600, -69.086
1384.1800, -68.998
1384.2000, -69.031
1384.2200, -68.930
1384.2400, -68.995
1384.2600, -68.890
1384.2800, -68.844
1384.3000, -68.908
1384.3200, -68.735
1384.3400, -68.839
1384.3600, -68.815
1384.3800, -68.878
1384.4000, -68.791
1384.4200, -68.825
1384.4400, -68.843
1384.4600, -68.668
1384.4800, -68.834
1384.5000, -68.791
1384.5200, -68.833
1384.5400, -68.799
1384.5600, -68.737
1384.5800, -68.714
1384.6000, -68.511
1384.6200, -68.641
1384.6400, -68.629
1384.6600, -68.636
1384.6800, -68.625
1384.7000, -68.482
1384.7200, -68.671
1384.7400, -68.543
1384.7600, -68.524
1384.7800, -68.431
1384.8000, -68.511
1384.8200, -68.575
1384.8400, -68.480
1384.8600, -68.539
1384.8800, -68.461
1384.9000, -68.519
1384.9200, -68.499
1384.9400, -68.512
1384.9600, -68.426
1384.9800, -68.684
1385.0000, -68.527
1385.0200, -68.610
1385.0400, -68.582
1385.0600, -68.591
1385.0800, -68.603
1385.1000, -68.646
1385.1200, -68.654
1385.1400, -68.766
1385.1600, -68.713
1385.1800, -68.812
1385.2000, -68.930
1385.2200, -68.737
1385.2400, -68.726
1385.2600, -68.613
1385.2800, -68.467
1385.3000, -68.451
1385.3200, -68.361
1385.3400, -68.330
1385.3600, -68.268
1385.3800, -68.129
1385.4000, -68.058
1385.4200, -67.989
1385.4400, -67.830
1385.4600, -67.958
1385.4800, -67.892
1385.5000, -68.000
1385.5200, -67.734
1385.5400, -67.916
1385.5600, -67.725
1385.5800, -67.648
1385.6000, -67.588
1385.6200, -67.761
1385.6400, -67.693
1385.6600, -67.618
1385.6800, -67.424
1385.7000, -67.497
1385.7200, -67.411
1385.7400, -67.485
1385.7600, -67.405
1385.7800, -67.355
1385.8000, -67.433
1385.8200, -67.520
1385.8400, -67.441
1385.8600, -67.443
1385.8800, -67.441
1385.9000, -67.474
1385.9200, -67.398
1385.9400, -67.458
1385.9600, -67.498
1385.9800, -67.463
1386.0000, -67.465
1386.0200, -67.453
1386.0400, -67.338
1386.0600, -67.384
1386.0800, -67.260
1386.1000, -67.219
1386.1200, -67.158
1386.1400, -67.015
1386.1600, -67.167
1386.1800, -66.932
1386.2000, -66.835
1386.2200, -66.821
1386.2400, -66.919
1386.2600, -66.865
1386.2800, -66.909
1386.3000, -66.942
1386.3200, -67.002
1386.3400, -66.864
1386.3600, -66.956
1386.3800, -67.063
1386.4000, -67.002
1386.4200, -67.048
1386.4400, -67.172
1386.4600, -67.149
1386.4800, -67.213
1386.5000, -67.092
1386.5200, -67.111
1386.5400, -67.089
1386.5600, -67.053
1386.5800, -67.057
1386.6000, -66.973
1386.6200, -66.929
1386.6400, -66.980
1386.6600, -66.787
1386.6800, -66.793
1386.7000, -66.558
1386.7200, -66.657
1386.7400, -66.632
1386.7600, -66.722
1386.7800, -66.670
1386.8000, -66.659
1386.8200, -66.495
1386.8400, -66.631
1386.8600, -66.501
1386.8800, -66.482
1386.9000, -66.458
1386.9200, -66.472
1386.9400, -66.484
1386.9600, -66.448
1386.9800, -66.356
1387.0000, -66.257
1387.0200, -66.392
1387.0400, -66.300
1387.0600, -66.379
1387.0800, -66.384
1387.1000, -66.283
1387.1200, -66.171
1387.1400, -66.218
1387.1600, -66.212
1387.1800, -66.214
1387.2000, -66.026
1387.2200, -66.184
1387.2400, -66.099
1387.2600, -66.059
1387.2800, -65.998
1387.3000, -66.041
1387.3200, -66.004
1387.3400, -65.986
1387.3600, -65.942
1387.3800, -65.910
1387.4000, -65.919
1387.4200, -65.781
1387.4400, -65.931
1387.4600, -65.691
1387.4800, -65.884
1387.5000, -65.860
1387.5200, -65.839
1387.5400, -65.999
1387.5600, -65.890
1387.5800, -65.808
1387.6000, -65.836
1387.6200, -65.830
1387.6400, -65.934
1387.6600, -65.852
1387.6800, -65.917
1387.7000, -65.821
1387.7200, -65.961
1387.7400, -65.868
1387.7600, -65.827
1387.7800, -65.941
1387.8000, -66.070
1387.8200, -66.034
1387.8400, -66.142
1387.8600, -66.250
1387.8800, -66.309
1387.9000, -66.499
1387.9200, -66.648
1387.9400, -66.719
1387.9600, -66.819
1387.9800, -66.731
1388.0000, -66.666
1388.0200, -66.584
1388.0400, -66.506
1388.0600, -66.403
1388.0800, -66.340
1388.1000, -66.473
1388.1200, -66.339
1388.1400, -66.142
1388.1600, -66.244
1388.1800, -66.094
1388.2000, -66.254
1388.2200, -66.236
1388.2400, -66.225
1388.2600, -66.160
1388.2800, -66.226
1388.3000, -66.286
1388.3200, -66.251
1388.3400, -66.345
1388.3600, -66.276
1388.3800, -66.441
1388.4000, -66.350
1388.4200, -66.287
1388.4400, -66.203
1388.4600, -66.220
1388.4800, -66.101
1388.5000, -66.076
1388.5200, -66.168
1388.5400, -66.211
1388.5600, -66.073
1388.5800, -66.139
1388.6000, -66.063
1388.6200, -65.930
1388.6400, -65.896
1388.6600, -65.958
1388.6800, -65.943
1388.7000, -65.951
1388.7200, -66.084
1388.7400, -65.983
1388.7600, -65.847
1388.7800, -65.974
1388.8000, -65.946
1388.8200, -65.897
1388.8400, -65.930
1388.8600, -66.013
1388.8800, -65.975
1388.9000, -65.996
1388.9200, -65.990
1388.9400, -66.061
1388.9600, -65.978
1388.9800, -66.084
1389.0000, -66.125
1389.0200, -66.176
1389.0400, -66.121
1389.0600, -66.181
1389.0800, -66.280
1389.1000, -66.141
1389.1200, -66.241
1389.1400, -66.200
1389.1600, -66.256
1389.1800, -66.193
1389.2000, -66.117
1389.2200, -66.238
1389.2400, -66.156
1389.2600, -66.193
1389.2800, -66.214
1389.3000, -66.145
1389.3200, -66.177
1389.3400, -66.177
1389.3600, -66.175
1389.3800, -66.121
1389.4000, -66.110
1389.4200, -66.170
1389.4400, -66.385
1389.4600, -66.221
1389.4800, -66.131
1389.5000, -66.200
1389.5200, -66.426
1389.5400, -66.277
1389.5600, -66.240
1389.5800, -66.394
1389.6000, -66.427
1389.6200, -66.458
1389.6400, -66.467
1389.6600, -66.420
1389.6800, -66.607
1389.7000, -66.584
1389.7200, -66.644
1389.7400, -66.593
1389.7600, -66.567
1389.7800, -66.577
1389.8000, -66.653
1389.8200, -66.749
1389.8400, -66.737
1389.8600, -66.759
1389.8800, -66.920
1389.9000, -67.034
1389.9200, -67.067
1389.9400, -67.151
1389.9600, -67.335
1389.9800, -67.190
1390.0000, -67.283
1390.0200, -67.252
1390.0400, -67.296
1390.0600, -67.288
1390.0800, -67.121
1390.1000, -67.198
1390.1200, -67.171
1390.1400, -67.114
1390.1600, -67.126
1390.1800, -67.169
1390.2000, -67.023
1390.2200, -67.121
1390.2400, -67.137
1390.2600, -67.091
1390.2800, -67.039
1390.3000, -67.206
1390.3200, -67.075
1390.3400, -67.195
1390.3600, -67.092
1390.3800, -67.067
1390.4000, -67.117
1390.4200, -67.172
1390.4400, -67.108
1390.4600, -67.298
1390.4800, -67.205
1390.5000, -67.191
1390.5200, -67.222
1390.5400, -67.212
1390.5600, -67.274
1390.5800, -67.307
1390.6000, -67.253
1390.6200, -67.332
1390.6400, -67.431
1390.6600, -67.319
1390.6800, -67.384
1390.7000, -67.545
1390.7200, -67.463
1390.7400, -67.379
1390.7600, -67.498
1390.7800, -67.442
1390.8000, -67.486
1390.8200, -67.499
1390.8400, -67.599
1390.8600, -67.664
1390.8800, -67.617
1390.9000, -67.465
1390.9200, -67.643
1390.9400, -67.601
1390.9600, -67.554
1390.9800, -67.593
1391.0000, -67.717
1391.0200, -67.759
1391.0400, -67.713
1391.0600, -67.715
1391.0800, -67.667
1391.1000, -67.643
1391.1200, -67.622
1391.1400, -67.701
1391.1600, -67.680
1391.1800, -67.637
1391.2000, -67.724
1391.2200, -67.757
1391.2400, -67.797
1391.2600, -67.756
1391.2800, -67.625
1391.3000, -67.831
1391.3200, -67.767
1391.3400, -67.835
1391.3600, -67.804
1391.3800, -67.868
1391.4000, -67.810
1391.4200, -67.850
1391.4400, -67.829
1391.4600, -67.854
1391.4800, -67.865
1391.5000, -67.873
1391.5200, -67.984
1391.5400, -67.941
1391.5600, -67.971
1391.5800, -68.084
1391.6000, -67.987
1391.6200, -68.045
1391.6400, -68.176
1391.6600, -68.107
1391.6800, -68.147
1391.7000, -68.228
1391.7200, -68.197
1391.7400, -68.287
1391.7600, -68.283
1391.7800, -68.324
1391.8000, -68.354
1391.8200, -68.356
1391.8400, -68.365
1391.8600, -68.413
1391.8800, -68.285
1391.9000, -68.475
1391.9200, -68.425
1391.9400, -68.372
1391.9600, -68.423
1391.9800, -68.488
1392.0000, -68.590
1392.0200, -68.542
1392.0400, -68.647
1392.0600, -68.602
1392.0800, -68.651
1392.1000, -68.715
1392.1200, -68.729
1392.1400, -68.923
1392.1600, -68.888
1392.1800, -68.980
1392.2000, -69.058
1392.2200, -69.055
1392.2400, -69.145
1392.2600, -69.230
1392.2800, -69.312
1392.3000, -69.433
1392.3200, -69.316
1392.3400, -69.357
1392.3600, -69.369
1392.3800, -69.440
1392.4000, -69.475
1392.4200, -69.456
1392.4400, -69.524
1392.4600, -69.497
1392.4800, -69.558
1392.5000, -69.610
1392.5200, -69.778
1392.5400, -69.937
1392.5600, -70.118
1392.5800, -70.266
1392.6000, -70.448
1392.6200, -70.724
1392.6400, -70.624
1392.6600, -70.363
1392.6800, -70.347
1392.7000, -70.387
1392.7200, -70.300
1392.7400, -70.237
1392.7600, -70.044
1392.7800, -70.122
1392.8000, -69.992
1392.8200, -69.830
1392.8400, -69.895
1392.8600, -69.774
1392.8800, -69.812
1392.9000, -69.723
1392.9200, -69.832
1392.9400, -69.917
1392.9600, -69.850
1392.9800, -69.957
1393.0000, -69.983
1393.0200, -69.952
1393.0400, -69.967
1393.0600, -70.083
1393.0800, -70.184
1393.1000, -70.147
1393.1200, -70.204
1393.1400, -70.201
1393.1600, -70.175
1393.1800, -70.303
1393.2000, -70.307
1393.2200, -70.257
1393.2400, -70.263
1393.2600, -70.364
1393.2800, -70.367
1393.3000, -70.274
1393.3200, -70.418
1393.3400, -70.417
1393.3600, -70.569
1393.3800, -70.590
1393.4000, -70.613
1393.4200, -70.590
1393.4400, -70.626
1393.4600, -70.786
1393.4800, -70.673
1393.5000, -70.675
1393.5200, -70.750
1393.5400, -70.725
1393.5600, -70.756
1393.5800, -70.912
1393.6000, -70.847
1393.6200, -70.855
1393.6400, -70.955
1393.6600, -71.075
1393.6800, -70.953
1393.7000, -71.035
1393.7200, -71.214
1393.7400, -71.204
1393.7600, -71.208
1393.7800, -71.213
1393.8000, -71.306
1393.8200, -71.341
1393.8400, -71.151
1393.8600, -71.329
1393.8800, -71.390
1393.9000, -71.415
1393.9200, -71.361
1393.9400, -71.427
1393.9600, -71.495
1393.9800, -71.569
1394.0000, -71.584
1394.0200, -71.575
1394.0400, -71.682
1394.0600, -71.722
1394.0800, -71.656
1394.1000, -71.573
1394.1200, -71.680
1394.1400, -71.752
1394.1600, -71.727
1394.1800, -71.727
1394.2000, -71.720
1394.2200, -71.839
1394.2400, -71.779
1394.2600, -71.812
1394.2800, -71.731
1394.3000, -71.699
1394.3200, -71.620
1394.3400, -71.881
1394.3600, -71.789
1394.3800, -71.607
1394.4000, -71.756
1394.4200, -71.734
1394.4400, -71.687
1394.4600, -71.755
1394.4800, -71.819
1394.5000, -71.742
1394.5200, -71.730
1394.5400, -71.695
1394.5600, -71.754
1394.5800, -71.751
1394.6000, -71.891
1394.6200, -71.709
1394.6400, -71.726
1394.6600, -71.661
1394.6800, -71.852
1394.7000, -71.839
1394.7200, -71.804
1394.7400, -71.830
1394.7600, -71.715
1394.7800, -71.724
1394.8000, -71.724
1394.8200, -71.606
1394.8400, -71.629
1394.8600, -71.586
1394.8800, -71.602
1394.9000, -71.651
1394.9200, -71.640
1394.9400, -71.511
1394.9600, -71.782
1394.9800, -71.776
1395.0000, -71.985
1395.0200, -72.004
1395.0400, -72.103
1395.0600, -72.254
1395.0800, -72.362
1395.1000, -72.360
1395.1200, -72.252
1395.1400, -72.038
1395.1600, -71.939
1395.1800, -71.878
1395.2000, -71.644
1395.2200, -71.667
1395.2400, -71.500
1395.2600, -71.378
1395.2800, -71.256
1395.3000, -71.150
1395.3200, -71.071
1395.3400, -71.049
1395.3600, -70.988
1395.3800, -70.952
1395.4000, -70.941
1395.4200, -70.971
1395.4400, -70.982
1395.4600, -71.005
1395.4800, -71.021
1395.5000, -71.067
1395.5200, -71.061
1395.5400, -71.253
1395.5600, -71.231
1395.5800, -71.240
1395.6000, -71.274
1395.6200, -71.177
1395.6400, -71.099
1395.6600, -71.084
1395.6800, -70.932
1395.7000, -70.832
1395.7200, -70.767
1395.7400, -70.766
1395.7600, -70.639
1395.7800, -70.496
1395.8000, -70.447
1395.8200, -70.437
1395.8400, -70.240
1395.8600, -70.230
1395.8800, -70.276
1395.9000, -70.286
1395.9200, -70.198
1395.9400, -70.083
1395.9600, -70.126
1395.9800, -70.026
1396.0000, -69.933
1396.0200, -69.965
1396.0400, -69.926
1396.0600, -69.795
1396.0800, -69.853
1396.1000, -69.823
1396.1200, -69.735
1396.1400, -69.663
1396.1600, -69.800
1396.1800, -69.782
1396.2000, -69.753
1396.2200, -69.765
1396.2400, -69.698
1396.2600, -69.625
1396.2800, -69.676
1396.3000, -69.718
1396.3200, -69.722
1396.3400, -69.864
1396.3600, -69.945
1396.3800, -70.080
1396.4000, -70.230
1396.4200, -70.329
1396.4400, -70.362
1396.4600, -70.428
1396.4800, -70.497
1396.5000, -70.297
1396.5200, -70.260
1396.5400, -70.108
1396.5600, -69.957
1396.5800, -70.041
1396.6000, -69.910
1396.6200, -69.855
1396.6400, -69.787
1396.6600, -69.759
1396.6800, -69.680
1396.7000, -69.653
1396.7200, -69.596
1396.7400, -69.463
1396.7600, -69.313
1396.7800, -69.174
1396.8000, -69.244
1396.8200, -69.193
1396.8400, -69.032
1396.8600, -69.008
1396.8800, -68.883
1396.9000, -68.798
1396.9200, -68.736
1396.9400, -68.652
1396.9600, -68.721
1396.9800, -68.604
1397.0000, -68.591
1397.0200, -68.421
1397.0400, -68.526
1397.0600, -68.432
1397.0800, -68.468
1397.1000, -68.475
1397.1200, -68.527
1397.1400, -68.429
1397.1600, -68.438
1397.1800, -68.406
1397.2000, -68.418
1397.2200, -68.293
1397.2400, -68.447
1397.2600, -68.351
1397.2800, -68.330
1397.3000, -68.449
1397.3200, -68.456
1397.3400, -68.431
1397.3600, -68.405
1397.3800, -68.435
1397.4000, -68.291
1397.4200, -68.304
1397.4400, -68.257
1397.4600, -68.249
1397.4800, -68.189
1397.5000, -68.151
1397.5200, -68.129
1397.5400, -68.047
1397.5600, -67.913
1397.5800, -67.947
1397.6000, -67.907
1397.6200, -67.829
1397.6400, -67.844
1397.6600, -67.828
1397.6800, -67.764
1397.7000, -67.784
1397.7200, -67.677
1397.7400, -67.772
1397.7600, -67.717
1397.7800, -67.663
1397.8000, -67.605
1397.8200, -67.672
1397.8400, -67.658
1397.8600, -67.563
1397.8800, -67.422
1397.9000, -67.559
1397.9200, -67.457
1397.9400, -67.554
1397.9600, -67.476
1397.9800, -67.421
1398.0000, -67.441
1398.0200, -67.355
1398.0400, -67.350
1398.0600, -67.363
1398.0800, -67.352
1398.1000, -67.245
1398.1200, -67.254
1398.1400, -67.364
1398.1600, -67.217
1398.1800, -67.358
1398.2000, -67.302
1398.2200, -67.226
1398.2400, -67.311
1398.2600, -67.184
1398.2800, -67.224
1398.3000, -67.193
1398.3200, -67.162
1398.3400, -67.096
1398.3600, -67.223
1398.3800, -66.992
1398.4000, -67.139
1398.4200, -67.128
1398.4400, -67.043
1398.4600, -67.107
1398.4800, -67.037
1398.5000, -67.018
1398.5200, -67.090
1398.5400, -67.005
1398.5600, -66.968
1398.5800, -66.869
1398.6000, -66.913
1398.6200, -66.927
1398.6400, -66.891
1398.6600, -66.903
1398.6800, -66.910
1398.7000, -66.820
1398.7200, -66.787
1398.7400, -66.701
1398.7600, -66.713
1398.7800, -66.829
1398.8000, -66.527
1398.8200, -66.631
1398.8400, -66.530
1398.8600, -66.555
1398.8800, -66.576
1398.9000, -66.607
1398.9200, -66.561
1398.9400, -66.546
1398.9600, -66.475
1398.9800, -66.433
1399.0000, -66.532
1399.0200, -66.350
1399.0400, -66.416
1399.0600, -66.382
1399.0800, -66.397
1399.1000, -66.281
1399.1200, -66.246
1399.1400, -66.367
1399.1600, -66.321
1399.1800, -66.264
1399.2000, -66.323
1399.2200, -66.298
1399.2400, -66.192
1399.2600, -66.122
1399.2800, -66.268
1399.3000, -66.102
1399.3200, -66.225
1399.3400, -66.178
1399.3600, -66.168
1399.3800, -66.120
1399.4000, -66.114
1399.4200, -66.142
1399.4400, -66.156
1399.4600, -66.073
1399.4800, -66.168
1399.5000, -66.166
1399.5200, -66.368
1399.5400, -66.484
1399.5600, -66.614
1399.5800, -66.615
1399.6000, -66.739
1399.6200, -66.760
1399.6400, -66.768
1399.6600, -66.681
1399.6800, -66.577
1399.7000, -66.482
1399.7200, -66.365
1399.7400, -66.382
1399.7600, -66.315
1399.7800, -66.143
1399.8000, -66.111
1399.8200, -65.929
1399.8400, -65.849
1399.8600, -65.899
1399.8800, -65.788
1399.9000, -65.743
1399.9200, -65.769
1399.9400, -65.778
1399.9600, -65.854
1399.9800, -65.805
1400.0000, -65.792
