70BCSV 	
// AQ6370B OPTICAL SPECTRUM ANALYZER //                 
25
"CTRWL",1350.000000
"SPAN", 100.000000
"START WL",1300.000000
"STOP WL",1400.000000
"WLFREQ", 0
"REFL",-47.3
"LSCL", 5.0
"RESLN",0.100
"AVG",   1
"SMPLAUTO",      0
"SMPL",       5001
"SMPLINTVL",0.0200
"HIGH2"
"MEAS"
"LSUNT",0
"NMSKH","OFF"
"RESCOR",0
"RESPARM", 9050
"FREQPARM", 9050






"[TRACE DATA]"
1300.0000, -66.486
1300.0200, -66.497
1300.0400, -66.499
1300.0600, -66.371
1300.0800, -66.330
1300.1000, -66.331
1300.1200, -66.488
1300.1400, -66.413
1300.1600, -66.442
1300.1800, -66.356
1300.2000, -66.460
1300.2200, -66.399
1300.2400, -66.425
1300.2600, -66.678
1300.2800, -66.641
1300.3000, -66.634
1300.3200, -66.667
1300.3400, -66.711
1300.3600, -66.734
1300.3800, -66.872
1300.4000, -66.880
1300.4200, -66.903
1300.4400, -66.944
1300.4600, -67.048
1300.4800, -67.144
1300.5000, -67.207
1300.5200, -67.118
1300.5400, -67.183
1300.5600, -67.257
1300.5800, -67.112
1300.6000, -67.149
1300.6200, -67.237
1300.6400, -67.228
1300.6600, -67.266
1300.6800, -67.244
1300.7000, -67.093
1300.7200, -66.997
1300.7400, -67.141
1300.7600, -66.967
1300.7800, -66.992
1300.8000, -67.018
1300.8200, -66.946
1300.8400, -66.834
1300.8600, -66.907
1300.8800, -66.873
1300.9000, -66.776
1300.9200, -66.781
1300.9400, -66.737
1300.9600, -66.653
1300.9800, -66.623
1301.0000, -66.611
1301.0200, -66.675
1301.0400, -66.723
1301.0600, -66.773
1301.0800, -66.886
1301.1000, -66.681
1301.1200, -66.787
1301.1400, -66.843
1301.1600, -66.838
1301.1800, -66.963
1301.2000, -66.970
1301.2200, -66.952
1301.2400, -67.050
1301.2600, -67.264
1301.2800, -67.295
1301.3000, -67.363
1301.3200, -67.360
1301.3400, -67.396
1301.3600, -67.452
1301.3800, -67.520
1301.4000, -67.677
1301.4200, -67.691
1301.4400, -67.683
1301.4600, -67.715
1301.4800, -67.747
1301.5000, -67.892
1301.5200, -67.979
1301.5400, -67.902
1301.5600, -67.908
1301.5800, -67.802
1301.6000, -67.880
1301.6200, -67.939
1301.6400, -67.881
1301.6600, -67.780
1301.6800, -67.728
1301.7000, -67.710
1301.7200, -67.718
1301.7400, -67.683
1301.7600, -67.676
1301.7800, -67.662
1301.8000, -67.675
1301.8200, -67.602
1301.8400, -67.591
1301.8600, -67.506
1301.8800, -67.594
1301.9000, -67.513
1301.9200, -67.580
1301.9400, -67.629
1301.9600, -67.559
1301.9800, -67.592
1302.0000, -67.512
1302.0200, -67.620
1302.0400, -67.597
1302.0600, -67.681
1302.0800, -67.678
1302.1000, -67.728
1302.1200, -67.831
1302.1400, -67.938
1302.1600, -67.925
1302.1800, -68.106
1302.2000, -68.109
1302.2200, -68.114
1302.2400, -68.274
1302.2600, -68.257
1302.2800, -68.423
1302.3000, -68.429
1302.3200, -68.391
1302.3400, -68.548
1302.3600, -68.528
1302.3800, -68.466
1302.4000, -68.612
1302.4200, -68.778
1302.4400, -68.656
1302.4600, -68.666
1302.4800, -68.692
1302.5000, -68.824
1302.5200, -68.766
1302.5400, -68.769
1302.5600, -68.653
1302.5800, -68.637
1302.6000, -68.651
1302.6200, -68.582
1302.6400, -68.653
1302.6600, -68.544
1302.6800, -68.540
1302.7000, -68.520
1302.7200, -68.506
1302.7400, -68.561
1302.7600, -68.397
1302.7800, -68.391
1302.8000, -68.274
1302.8200, -68.325
1302.8400, -68.312
1302.8600, -68.325
1302.8800, -68.394
1302.9000, -68.398
1302.9200, -68.353
1302.9400, -68.418
1302.9600, -68.491
1302.9800, -68.434
1303.0000, -68.532
1303.0200, -68.566
1303.0400, -68.520
1303.0600, -68.677
1303.0800, -68.674
1303.1000, -68.836
1303.1200, -68.863
1303.1400, -68.854
1303.1600, -69.080
1303.1800, -68.954
1303.2000, -69.100
1303.2200, -69.248
1303.2400, -69.284
1303.2600, -69.265
1303.2800, -69.250
1303.3000, -69.378
1303.3200, -69.462
1303.3400, -69.426
1303.3600, -69.392
1303.3800, -69.585
1303.4000, -69.447
1303.4200, -69.511
1303.4400, -69.581
1303.4600, -69.498
1303.4800, -69.489
1303.5000, -69.462
1303.5200, -69.405
1303.5400, -69.295
1303.5600, -69.346
1303.5800, -69.292
1303.6000, -69.346
1303.6200, -69.197
1303.6400, -69.135
1303.6600, -69.212
1303.6800, -69.198
1303.7000, -69.083
1303.7200, -68.997
1303.7400, -69.089
1303.7600, -68.964
1303.7800, -68.976
1303.8000, -69.029
1303.8200, -69.014
1303.8400, -68.994
1303.8600, -68.954
1303.8800, -69.016
1303.9000, -69.056
1303.9200, -69.062
1303.9400, -69.053
1303.9600, -69.131
1303.9800, -69.184
1304.0000, -69.300
1304.0200, -69.270
1304.0400, -69.357
1304.0600, -69.365
1304.0800, -69.360
1304.1000, -69.525
1304.1200, -69.607
1304.1400, -69.593
1304.1600, -69.692
1304.1800, -69.610
1304.2000, -69.790
1304.2200, -69.782
1304.2400, -69.698
1304.2600, -69.905
1304.2800, -69.808
1304.3000, -69.797
1304.3200, -69.831
1304.3400, -69.794
1304.3600, -69.716
1304.3800, -69.674
1304.4000, -69.665
1304.4200, -69.744
1304.4400, -69.638
1304.4600, -69.601
1304.4800, -69.506
1304.5000, -69.582
1304.5200, -69.462
1304.5400, -69.388
1304.5600, -69.312
1304.5800, -69.231
1304.6000, -69.260
1304.6200, -69.131
1304.6400, -69.097
1304.6600, -69.070
1304.6800, -69.096
1304.7000, -69.053
1304.7200, -69.053
1304.7400, -69.025
1304.7600, -68.953
1304.7800, -68.963
1304.8000, -69.032
1304.8200, -68.864
1304.8400, -68.973
1304.8600, -68.958
1304.8800, -68.912
1304.9000, -68.980
1304.9200, -68.976
1304.9400, -69.106
1304.9600, -68.975
1304.9800, -69.141
1305.0000, -69.140
1305.0200, -69.095
1305.0400, -69.244
1305.0600, -69.243
1305.0800, -69.159
1305.1000, -69.460
1305.1200, -69.384
1305.1400, -69.295
1305.1600, -69.489
1305.1800, -69.373
1305.2000, -69.225
1305.2200, -69.295
1305.2400, -69.371
1305.2600, -69.314
1305.2800, -69.262
1305.3000, -69.143
1305.3200, -69.213
1305.3400, -69.238
1305.3600, -69.118
1305.3800, -69.298
1305.4000, -68.954
1305.4200, -68.939
1305.4400, -68.921
1305.4600, -68.879
1305.4800, -68.770
1305.5000, -68.779
1305.5200, -68.712
1305.5400, -68.683
1305.5600, -68.582
1305.5800, -68.504
1305.6000, -68.466
1305.6200, -68.400
1305.6400, -68.314
1305.6600, -68.398
1305.6800, -68.220
1305.7000, -68.385
1305.7200, -68.233
1305.7400, -68.270
1305.7600, -68.308
1305.7800, -68.317
1305.8000, -68.179
1305.8200, -68.339
1305.8400, -68.259
1305.8600, -68.271
1305.8800, -68.404
1305.9000, -68.363
1305.9200, -68.437
1305.9400, -68.363
1305.9600, -68.468
1305.9800, -68.531
1306.0000, -68.300
1306.0200, -68.455
1306.0400, -68.483
1306.0600, -68.536
1306.0800, -68.440
1306.1000, -68.459
1306.1200, -68.509
1306.1400, -68.570
1306.1600, -68.479
1306.1800, -68.398
1306.2000, -68.498
1306.2200, -68.374
1306.2400, -68.260
1306.2600, -68.432
1306.2800, -68.168
1306.3000, -68.182
1306.3200, -68.186
1306.3400, -68.055
1306.3600, -67.988
1306.3800, -67.909
1306.4000, -67.869
1306.4200, -67.793
1306.4400, -67.720
1306.4600, -67.520
1306.4800, -67.608
1306.5000, -67.484
1306.5200, -67.354
1306.5400, -67.282
1306.5600, -67.236
1306.5800, -67.210
1306.6000, -67.114
1306.6200, -67.171
1306.6400, -67.224
1306.6600, -67.175
1306.6800, -67.019
1306.7000, -67.034
1306.7200, -67.046
1306.7400, -66.992
1306.7600, -67.057
1306.7800, -67.169
1306.8000, -67.066
1306.8200, -67.135
1306.8400, -67.198
1306.8600, -67.171
1306.8800, -67.251
1306.9000, -67.173
1306.9200, -67.120
1306.9400, -66.994
1306.9600, -67.160
1306.9800, -67.174
1307.0000, -67.082
1307.0200, -67.104
1307.0400, -67.070
1307.0600, -67.024
1307.0800, -67.049
1307.1000, -66.987
1307.1200, -67.019
1307.1400, -66.918
1307.1600, -66.883
1307.1800, -66.882
1307.2000, -66.743
1307.2200, -66.840
1307.2400, -66.642
1307.2600, -66.520
1307.2800, -66.474
1307.3000, -66.357
1307.3200, -66.325
1307.3400, -66.208
1307.3600, -66.135
1307.3800, -66.107
1307.4000, -66.062
1307.4200, -65.892
1307.4400, -65.810
1307.4600, -65.755
1307.4800, -65.731
1307.5000, -65.696
1307.5200, -65.731
1307.5400, -65.463
1307.5600, -65.546
1307.5800, -65.543
1307.6000, -65.453
1307.6200, -65.463
1307.6400, -65.410
1307.6600, -65.441
1307.6800, -65.481
1307.7000, -65.365
1307.7200, -65.426
1307.7400, -65.293
1307.7600, -65.404
1307.7800, -65.525
1307.8000, -65.471
1307.8200, -65.469
1307.8400, -65.467
1307.8600, -65.486
1307.8800, -65.387
1307.9000, -65.469
1307.9200, -65.402
1307.9400, -65.531
1307.9600, -65.422
1307.9800, -65.598
1308.0000, -65.496
1308.0200, -65.389
1308.0400, -65.459
1308.0600, -65.393
1308.0800, -65.427
1308.1000, -65.346
1308.1200, -65.363
1308.1400, -65.235
1308.1600, -65.194
1308.1800, -65.114
1308.2000, -65.105
1308.2200, -65.100
1308.2400, -64.866
1308.2600, -64.910
1308.2800, -64.809
1308.3000, -64.803
1308.3200, -64.740
1308.3400, -64.698
1308.3600, -64.677
1308.3800, -64.583
1308.4000, -64.586
1308.4200, -64.448
1308.4400, -64.436
1308.4600, -64.409
1308.4800, -64.186
1308.5000, -64.234
1308.5200, -64.265
1308.5400, -64.312
1308.5600, -64.220
1308.5800, -64.200
1308.6000, -64.327
1308.6200, -64.241
1308.6400, -64.235
1308.6600, -64.310
1308.6800, -64.398
1308.7000, -64.300
1308.7200, -64.276
1308.7400, -64.364
1308.7600, -64.389
1308.7800, -64.431
1308.8000, -64.482
1308.8200, -64.531
1308.8400, -64.524
1308.8600, -64.488
1308.8800, -64.532
1308.9000, -64.573
1308.9200, -64.488
1308.9400, -64.572
1308.9600, -64.536
1308.9800, -64.552
1309.0000, -64.581
1309.0200, -64.452
1309.0400, -64.547
1309.0600, -64.461
1309.0800, -64.404
1309.1000, -64.397
1309.1200, -64.372
1309.1400, -64.294
1309.1600, -64.197
1309.1800, -64.166
1309.2000, -64.257
1309.2200, -64.129
1309.2400, -64.023
1309.2600, -64.021
1309.2800, -63.965
1309.3000, -63.903
1309.3200, -63.868
1309.3400, -63.890
1309.3600, -63.815
1309.3800, -63.782
1309.4000, -63.667
1309.4200, -63.697
1309.4400, -63.662
1309.4600, -63.731
1309.4800, -63.658
1309.5000, -63.711
1309.5200, -63.646
1309.5400, -63.745
1309.5600, -63.727
1309.5800, -63.664
1309.6000, -63.836
1309.6200, -63.861
1309.6400, -63.833
1309.6600, -63.886
1309.6800, -63.900
1309.7000, -63.974
1309.7200, -63.949
1309.7400, -63.945
1309.7600, -64.118
1309.7800, -63.987
1309.8000, -64.026
1309.8200, -64.125
1309.8400, -64.252
1309.8600, -64.245
1309.8800, -64.330
1309.9000, -64.257
1309.9200, -64.165
1309.9400, -64.283
1309.9600, -64.260
1309.9800, -64.212
1310.0000, -64.242
1310.0200, -64.155
1310.0400, -64.167
1310.0600, -63.996
1310.0800, -64.205
1310.1000, -64.094
1310.1200, -64.050
1310.1400, -63.946
1310.1600, -64.037
1310.1800, -63.875
1310.2000, -63.816
1310.2200, -63.798
1310.2400, -63.808
1310.2600, -63.710
1310.2800, -63.700
1310.3000, -63.614
1310.3200, -63.520
1310.3400, -63.490
1310.3600, -63.595
1310.3800, -63.608
1310.4000, -63.575
1310.4200, -63.516
1310.4400, -63.525
1310.4600, -63.516
1310.4800, -63.635
1310.5000, -63.628
1310.5200, -63.643
1310.5400, -63.735
1310.5600, -63.779
1310.5800, -63.747
1310.6000, -63.815
1310.6200, -63.870
1310.6400, -63.878
1310.6600, -63.977
1310.6800, -64.022
1310.7000, -64.028
1310.7200, -64.138
1310.7400, -64.045
1310.7600, -64.159
1310.7800, -64.132
1310.8000, -64.233
1310.8200, -64.204
1310.8400, -64.345
1310.8600, -64.162
1310.8800, -64.240
1310.9000, -64.271
1310.9200, -64.245
1310.9400, -64.241
1310.9600, -64.176
1310.9800, -64.309
1311.0000, -64.273
1311.0200, -64.249
1311.0400, -63.977
1311.0600, -64.054
1311.0800, -64.133
1311.1000, -63.904
1311.1200, -64.034
1311.1400, -64.028
1311.1600, -63.816
1311.1800, -63.825
1311.2000, -63.895
1311.2200, -63.799
1311.2400, -63.823
1311.2600, -63.732
1311.2800, -63.790
1311.3000, -63.732
1311.3200, -63.805
1311.3400, -63.750
1311.3600, -63.774
1311.3800, -63.786
1311.4000, -63.752
1311.4200, -63.902
1311.4400, -63.888
1311.4600, -63.915
1311.4800, -63.987
1311.5000, -63.952
1311.5200, -63.949
1311.5400, -64.097
1311.5600, -64.082
1311.5800, -64.156
1311.6000, -64.199
1311.6200, -64.336
1311.6400, -64.301
1311.6600, -64.429
1311.6800, -64.338
1311.7000, -64.429
1311.7200, -64.585
1311.7400, -64.422
1311.7600, -64.614
1311.7800, -64.473
1311.8000, -64.584
1311.8200, -64.579
1311.8400, -64.524
1311.8600, -64.501
1311.8800, -64.566
1311.9000, -64.459
1311.9200, -64.553
1311.9400, -64.424
1311.9600, -64.532
1311.9800, -64.365
1312.0000, -64.432
1312.0200, -64.412
1312.0400, -64.355
1312.0600, -64.403
1312.0800, -64.257
1312.1000, -64.251
1312.1200, -64.323
1312.1400, -64.313
1312.1600, -64.238
1312.1800, -64.186
1312.2000, -64.216
1312.2200, -64.123
1312.2400, -64.074
1312.2600, -64.249
1312.2800, -64.110
1312.3000, -64.128
1312.3200, -64.208
1312.3400, -64.252
1312.3600, -64.285
1312.3800, -64.305
1312.4000, -64.252
1312.4200, -64.384
1312.4400, -64.376
1312.4600, -64.488
1312.4800, -64.476
1312.5000, -64.587
1312.5200, -64.462
1312.5400, -64.565
1312.5600, -64.767
1312.5800, -64.654
1312.6000, -64.686
1312.6200, -64.834
1312.6400, -64.862
1312.6600, -64.913
1312.6800, -64.961
1312.7000, -64.979
1312.7200, -65.083
1312.7400, -65.028
1312.7600, -65.083
1312.7800, -65.049
1312.8000, -65.035
1312.8200, -65.084
1312.8400, -64.979
1312.8600, -65.043
1312.8800, -64.965
1312.9000, -65.030
1312.9200, -64.897
1312.9400, -64.826
1312.9600, -64.991
1312.9800, -64.858
1313.0000, -64.834
1313.0200, -64.785
1313.0400, -64.780
1313.0600, -64.752
1313.0800, -64.713
1313.1000, -64.597
1313.1200, -64.749
1313.1400, -64.659
1313.1600, -64.626
1313.1800, -64.770
1313.2000, -64.665
1313.2200, -64.698
1313.2400, -64.636
1313.2600, -64.685
1313.2800, -64.668
1313.3000, -64.765
1313.3200, -64.793
1313.3400, -64.782
1313.3600, -64.825
1313.3800, -64.860
1313.4000, -64.969
1313.4200, -64.928
1313.4400, -65.016
1313.4600, -65.209
1313.4800, -65.085
1313.5000, -65.167
1313.5200, -65.223
1313.5400, -65.334
1313.5600, -65.459
1313.5800, -65.467
1313.6000, -65.487
1313.6200, -65.512
1313.6400, -65.494
1313.6600, -65.563
1313.6800, -65.621
1313.7000, -65.702
1313.7200, -65.578
1313.7400, -65.680
1313.7600, -65.735
1313.7800, -65.731
1313.8000, -65.715
1313.8200, -65.734
1313.8400, -65.622
1313.8600, -65.565
1313.8800, -65.579
1313.9000, -65.572
1313.9200, -65.697
1313.9400, -65.665
1313.9600, -65.645
1313.9800, -65.551
1314.0000, -65.464
1314.0200, -65.502
1314.0400, -65.578
1314.0600, -65.615
1314.0800, -65.509
1314.1000, -65.522
1314.1200, -65.546
1314.1400, -65.519
1314.1600, -65.662
1314.1800, -65.631
1314.2000, -65.597
1314.2200, -65.642
1314.2400, -65.651
1314.2600, -65.834
1314.2800, -65.730
1314.3000, -65.946
1314.3200, -65.914
1314.3400, -65.924
1314.3600, -66.035
1314.3800, -66.131
1314.4000, -66.194
1314.4200, -66.221
1314.4400, -66.215
1314.4600, -66.319
1314.4800, -66.348
1314.5000, -66.556
1314.5200, -66.566
1314.5400, -66.525
1314.5600, -66.687
1314.5800, -66.676
1314.6000, -66.707
1314.6200, -66.845
1314.6400, -66.831
1314.6600, -66.815
1314.6800, -66.935
1314.7000, -66.838
1314.7200, -66.845
1314.7400, -66.933
1314.7600, -66.933
1314.7800, -66.912
1314.8000, -66.989
1314.8200, -67.036
1314.8400, -66.966
1314.8600, -66.847
1314.8800, -66.854
1314.9000, -66.883
1314.9200, -66.917
1314.9400, -66.994
1314.9600, -66.907
1314.9800, -66.897
1315.0000, -66.903
1315.0200, -66.956
1315.0400, -66.936
1315.0600, -66.907
1315.0800, -66.941
1315.1000, -66.993
1315.1200, -67.071
1315.1400, -67.052
1315.1600, -67.150
1315.1800, -67.167
1315.2000, -67.195
1315.2200, -67.246
1315.2400, -67.366
1315.2600, -67.439
1315.2800, -67.488
1315.3000, -67.454
1315.3200, -67.658
1315.3400, -67.736
1315.3600, -67.865
1315.3800, -67.858
1315.4000, -68.027
1315.4200, -68.069
1315.4400, -68.051
1315.4600, -68.194
1315.4800, -68.213
1315.5000, -68.328
1315.5200, -68.317
1315.5400, -68.475
1315.5600, -68.437
1315.5800, -68.482
1315.6000, -68.585
1315.6200, -68.592
1315.6400, -68.751
1315.6600, -68.674
1315.6800, -68.562
1315.7000, -68.635
1315.7200, -68.656
1315.7400, -68.563
1315.7600, -68.560
1315.7800, -68.648
1315.8000, -68.651
1315.8200, -68.592
1315.8400, -68.606
1315.8600, -68.637
1315.8800, -68.662
1315.9000, -68.634
1315.9200, -68.531
1315.9400, -68.714
1315.9600, -68.696
1315.9800, -68.729
1316.0000, -68.793
1316.0200, -68.737
1316.0400, -68.805
1316.0600, -68.756
1316.0800, -68.862
1316.1000, -68.810
1316.1200, -68.936
1316.1400, -68.973
1316.1600, -69.000
1316.1800, -69.005
1316.2000, -69.096
1316.2200, -69.251
1316.2400, -69.210
1316.2600, -69.282
1316.2800, -69.323
1316.3000, -69.429
1316.3200, -69.550
1316.3400, -69.542
1316.3600, -69.609
1316.3800, -69.663
1316.4000, -69.746
1316.4200, -69.735
1316.4400, -69.814
1316.4600, -69.980
1316.4800, -69.889
1316.5000, -69.886
1316.5200, -69.948
1316.5400, -70.054
1316.5600, -70.122
1316.5800, -70.045
1316.6000, -70.132
1316.6200, -70.116
1316.6400, -70.153
1316.6600, -70.150
1316.6800, -70.156
1316.7000, -70.227
1316.7200, -70.119
1316.7400, -70.114
1316.7600, -70.059
1316.7800, -70.006
1316.8000, -69.986
1316.8200, -70.075
1316.8400, -70.031
1316.8600, -70.022
1316.8800, -70.075
1316.9000, -69.957
1316.9200, -70.013
1316.9400, -70.060
1316.9600, -70.030
1316.9800, -70.095
1317.0000, -70.038
1317.0200, -70.074
1317.0400, -70.134
1317.0600, -70.136
1317.0800, -70.171
1317.1000, -70.203
1317.1200, -70.277
1317.1400, -70.366
1317.1600, -70.380
1317.1800, -70.420
1317.2000, -70.391
1317.2200, -70.596
1317.2400, -70.562
1317.2600, -70.716
1317.2800, -70.594
1317.3000, -70.623
1317.3200, -70.843
1317.3400, -70.787
1317.3600, -70.873
1317.3800, -70.872
1317.4000, -70.980
1317.4200, -71.094
1317.4400, -70.995
1317.4600, -71.029
1317.4800, -71.187
1317.5000, -71.111
1317.5200, -71.190
1317.5400, -71.120
1317.5600, -71.245
1317.5800, -71.216
1317.6000, -71.083
1317.6200, -71.166
1317.6400, -71.118
1317.6600, -71.212
1317.6800, -71.117
1317.7000, -71.146
1317.7200, -71.038
1317.7400, -71.021
1317.7600, -71.038
1317.7800, -71.071
1317.8000, -71.027
1317.8200, -70.986
1317.8400, -70.983
1317.8600, -70.992
1317.8800, -70.982
1317.9000, -71.075
1317.9200, -70.938
1317.9400, -70.971
1317.9600, -70.938
1317.9800, -70.956
1318.0000, -71.015
1318.0200, -70.995
1318.0400, -70.951
1318.0600, -70.969
1318.0800, -71.093
1318.1000, -70.995
1318.1200, -71.010
1318.1400, -71.162
1318.1600, -71.145
1318.1800, -71.142
1318.2000, -71.340
1318.2200, -71.266
1318.2400, -71.272
1318.2600, -71.352
1318.2800, -71.389
1318.3000, -71.409
1318.3200, -71.368
1318.3400, -71.523
1318.3600, -71.486
1318.3800, -71.561
1318.4000, -71.464
1318.4200, -71.492
1318.4400, -71.560
1318.4600, -71.523
1318.4800, -71.493
1318.5000, -71.459
1318.5200, -71.452
1318.5400, -71.418
1318.5600, -71.486
1318.5800, -71.477
1318.6000, -71.430
1318.6200, -71.380
1318.6400, -71.288
1318.6600, -71.330
1318.6800, -71.202
1318.7000, -71.194
1318.7200, -71.168
1318.7400, -71.072
1318.7600, -71.026
1318.7800, -70.874
1318.8000, -70.901
1318.8200, -70.825
1318.8400, -70.801
1318.8600, -70.824
1318.8800, -70.730
1318.9000, -70.817
1318.9200, -70.793
1318.9400, -70.666
1318.9600, -70.712
1318.9800, -70.606
1319.0000, -70.743
1319.0200, -70.738
1319.0400, -70.708
1319.0600, -70.618
1319.0800, -70.681
1319.1000, -70.624
1319.1200, -70.657
1319.1400, -70.670
1319.1600, -70.612
1319.1800, -70.673
1319.2000, -70.717
1319.2200, -70.703
1319.2400, -70.669
1319.2600, -70.727
1319.2800, -70.742
1319.3000, -70.753
1319.3200, -70.787
1319.3400, -70.704
1319.3600, -70.731
1319.3800, -70.728
1319.4000, -70.706
1319.4200, -70.615
1319.4400, -70.646
1319.4600, -70.588
1319.4800, -70.536
1319.5000, -70.547
1319.5200, -70.456
1319.5400, -70.299
1319.5600, -70.313
1319.5800, -70.297
1319.6000, -70.182
1319.6200, -70.126
1319.6400, -70.117
1319.6600, -69.875
1319.6800, -69.961
1319.7000, -69.909
1319.7200, -69.850
1319.7400, -69.756
1319.7600, -69.707
1319.7800, -69.624
1319.8000, -69.655
1319.8200, -69.547
1319.8400, -69.400
1319.8600, -69.453
1319.8800, -69.489
1319.9000, -69.326
1319.9200, -69.301
1319.9400, -69.264
1319.9600, -69.315
1319.9800, -69.358
1320.0000, -69.264
1320.0200, -69.253
1320.0400, -69.380
1320.0600, -69.311
1320.0800, -69.261
1320.1000, -69.240
1320.1200, -69.338
1320.1400, -69.365
1320.1600, -69.249
1320.1800, -69.224
1320.2000, -69.308
1320.2200, -69.329
1320.2400, -69.334
1320.2600, -69.309
1320.2800, -69.295
1320.3000, -69.252
1320.3200, -69.193
1320.3400, -69.248
1320.3600, -69.138
1320.3800, -69.129
1320.4000, -69.077
1320.4200, -69.035
1320.4400, -68.987
1320.4600, -69.003
1320.4800, -68.862
1320.5000, -68.881
1320.5200, -68.768
1320.5400, -68.783
1320.5600, -68.634
1320.5800, -68.529
1320.6000, -68.545
1320.6200, -68.418
1320.6400, -68.488
1320.6600, -68.316
1320.6800, -68.238
1320.7000, -68.252
1320.7200, -68.209
1320.7400, -68.082
1320.7600, -68.055
1320.7800, -67.924
1320.8000, -67.992
1320.8200, -68.018
1320.8400, -67.985
1320.8600, -67.834
1320.8800, -67.903
1320.9000, -67.796
1320.9200, -67.799
1320.9400, -67.715
1320.9600, -67.736
1320.9800, -67.865
1321.0000, -67.760
1321.0200, -67.910
1321.0400, -67.810
1321.0600, -67.875
1321.0800, -67.814
1321.1000, -67.927
1321.1200, -67.816
1321.1400, -67.819
1321.1600, -67.924
1321.1800, -67.878
1321.2000, -68.042
1321.2200, -67.947
1321.2400, -67.953
1321.2600, -67.872
1321.2800, -67.909
1321.3000, -67.969
1321.3200, -67.956
1321.3400, -67.942
1321.3600, -67.811
1321.3800, -67.915
1321.4000, -67.826
1321.4200, -67.838
1321.4400, -67.735
1321.4600, -67.741
1321.4800, -67.669
1321.5000, -67.780
1321.5200, -67.571
1321.5400, -67.513
1321.5600, -67.547
1321.5800, -67.459
1321.6000, -67.534
1321.6200, -67.437
1321.6400, -67.371
1321.6600, -67.212
1321.6800, -67.270
1321.7000, -67.263
1321.7200, -67.127
1321.7400, -67.267
1321.7600, -67.228
1321.7800, -67.111
1321.8000, -67.182
1321.8200, -67.120
1321.8400, -67.251
1321.8600, -67.158
1321.8800, -67.172
1321.9000, -67.161
1321.9200, -67.254
1321.9400, -67.155
1321.9600, -67.244
1321.9800, -67.263
1322.0000, -67.364
1322.0200, -67.279
1322.0400, -67.283
1322.0600, -67.308
1322.0800, -67.438
1322.1000, -67.321
1322.1200, -67.524
1322.1400, -67.527
1322.1600, -67.449
1322.1800, -67.586
1322.2000, -67.523
1322.2200, -67.617
1322.2400, -67.593
1322.2600, -67.717
1322.2800, -67.586
1322.3000, -67.622
1322.3200, -67.641
1322.3400, -67.640
1322.3600, -67.613
1322.3800, -67.633
1322.4000, -67.606
1322.4200, -67.528
1322.4400, -67.582
1322.4600, -67.437
1322.4800, -67.400
1322.5000, -67.411
1322.5200, -67.312
1322.5400, -67.454
1322.5600, -67.397
1322.5800, -67.370
1322.6000, -67.256
1322.6200, -67.276
1322.6400, -67.254
1322.6600, -67.286
1322.6800, -67.144
1322.7000, -67.193
1322.7200, -67.245
1322.7400, -67.066
1322.7600, -67.144
1322.7800, -67.253
1322.8000, -67.333
1322.8200, -67.276
1322.8400, -67.213
1322.8600, -67.302
1322.8800, -67.291
1322.9000, -67.289
1322.9200, -67.319
1322.9400, -67.394
1322.9600, -67.342
1322.9800, -67.306
1323.0000, -67.447
1323.0200, -67.544
1323.0400, -67.595
1323.0600, -67.603
1323.0800, -67.620
1323.1000, -67.733
1323.1200, -67.695
1323.1400, -67.658
1323.1600, -67.746
1323.1800, -67.781
1323.2000, -67.788
1323.2200, -67.801
1323.2400, -67.834
1323.2600, -67.803
1323.2800, -67.824
1323.3000, -67.821
1323.3200, -67.770
1323.3400, -67.820
1323.3600, -67.833
1323.3800, -67.779
1323.4000, -67.640
1323.4200, -67.665
1323.4400, -67.689
1323.4600, -67.778
1323.4800, -67.634
1323.5000, -67.675
1323.5200, -67.588
1323.5400, -67.647
1323.5600, -67.501
1323.5800, -67.539
1323.6000, -67.551
1323.6200, -67.451
1323.6400, -67.495
1323.6600, -67.567
1323.6800, -67.414
1323.7000, -67.488
1323.7200, -67.387
1323.7400, -67.452
1323.7600, -67.445
1323.7800, -67.502
1323.8000, -67.629
1323.8200, -67.643
1323.8400, -67.486
1323.8600, -67.608
1323.8800, -67.638
1323.9000, -67.690
1323.9200, -67.665
1323.9400, -67.680
1323.9600, -67.841
1323.9800, -67.816
1324.0000, -67.832
1324.0200, -67.802
1324.0400, -67.876
1324.0600, -67.881
1324.0800, -67.904
1324.1000, -68.018
1324.1200, -67.997
1324.1400, -67.980
1324.1600, -68.110
1324.1800, -68.066
1324.2000, -68.006
1324.2200, -68.115
1324.2400, -68.022
1324.2600, -68.175
1324.2800, -68.233
1324.3000, -68.029
1324.3200, -68.035
1324.3400, -68.153
1324.3600, -68.048
1324.3800, -68.016
1324.4000, -67.956
1324.4200, -68.008
1324.4400, -67.937
1324.4600, -67.882
1324.4800, -67.901
1324.5000, -67.869
1324.5200, -67.843
1324.5400, -67.951
1324.5600, -67.795
1324.5800, -67.752
1324.6000, -67.874
1324.6200, -67.761
1324.6400, -67.815
1324.6600, -67.843
1324.6800, -67.797
1324.7000, -67.833
1324.7200, -67.723
1324.7400, -67.807
1324.7600, -67.880
1324.7800, -67.923
1324.8000, -68.001
1324.8200, -67.919
1324.8400, -67.872
1324.8600, -67.939
1324.8800, -68.000
1324.9000, -67.999
1324.9200, -68.133
1324.9400, -68.217
1324.9600, -68.096
1324.9800, -68.220
1325.0000, -68.228
1325.0200, -68.318
1325.0400, -68.337
1325.0600, -68.388
1325.0800, -68.390
1325.1000, -68.342
1325.1200, -68.396
1325.1400, -68.384
1325.1600, -68.441
1325.1800, -68.354
1325.2000, -68.367
1325.2200, -68.397
1325.2400, -68.539
1325.2600, -68.484
1325.2800, -68.397
1325.3000, -68.446
1325.3200, -68.402
1325.3400, -68.259
1325.3600, -68.309
1325.3800, -68.264
1325.4000, -68.335
1325.4200, -68.280
1325.4400, -68.244
1325.4600, -68.188
1325.4800, -68.188
1325.5000, -68.189
1325.5200, -68.095
1325.5400, -68.114
1325.5600, -68.155
1325.5800, -68.070
1325.6000, -68.198
1325.6200, -68.061
1325.6400, -68.069
1325.6600, -68.126
1325.6800, -68.167
1325.7000, -68.222
1325.7200, -68.183
1325.7400, -68.200
1325.7600, -68.288
1325.7800, -68.333
1325.8000, -68.338
1325.8200, -68.362
1325.8400, -68.411
1325.8600, -68.501
1325.8800, -68.418
1325.9000, -68.454
1325.9200, -68.573
1325.9400, -68.572
1325.9600, -68.762
1325.9800, -68.632
1326.0000, -68.713
1326.0200, -68.737
1326.0400, -68.764
1326.0600, -68.830
1326.0800, -68.787
1326.1000, -68.830
1326.1200, -68.869
1326.1400, -68.913
1326.1600, -68.900
1326.1800, -68.885
1326.2000, -68.882
1326.2200, -68.877
1326.2400, -68.887
1326.2600, -68.943
1326.2800, -68.887
1326.3000, -68.845
1326.3200, -68.879
1326.3400, -68.831
1326.3600, -68.811
1326.3800, -68.797
1326.4000, -68.882
1326.4200, -68.797
1326.4400, -68.851
1326.4600, -68.780
1326.4800, -68.816
1326.5000, -68.784
1326.5200, -68.781
1326.5400, -68.734
1326.5600, -68.726
1326.5800, -68.798
1326.6000, -68.797
1326.6200, -68.746
1326.6400, -68.943
1326.6600, -68.774
1326.6800, -68.897
1326.7000, -68.896
1326.7200, -68.980
1326.7400, -68.935
1326.7600, -68.951
1326.7800, -69.090
1326.8000, -69.079
1326.8200, -69.108
1326.8400, -69.136
1326.8600, -69.210
1326.8800, -69.233
1326.9000, -69.293
1326.9200, -69.226
1326.9400, -69.340
1326.9600, -69.362
1326.9800, -69.407
1327.0000, -69.520
1327.0200, -69.451
1327.0400, -69.507
1327.0600, -69.596
1327.0800, -69.544
1327.1000, -69.621
1327.1200, -69.678
1327.1400, -69.649
1327.1600, -69.505
1327.1800, -69.540
1327.2000, -69.575
1327.2200, -69.477
1327.2400, -69.586
1327.2600, -69.438
1327.2800, -69.445
1327.3000, -69.507
1327.3200, -69.302
1327.3400, -69.383
1327.3600, -69.374
1327.3800, -69.365
1327.4000, -69.400
1327.4200, -69.342
1327.4400, -69.272
1327.4600, -69.287
1327.4800, -69.295
1327.5000, -69.337
1327.5200, -69.318
1327.5400, -69.355
1327.5600, -69.441
1327.5800, -69.366
1327.6000, -69.510
1327.6200, -69.611
1327.6400, -69.715
1327.6600, -69.668
1327.6800, -69.782
1327.7000, -69.752
1327.7200, -69.782
1327.7400, -69.893
1327.7600, -69.868
1327.7800, -69.994
1327.8000, -69.866
1327.8200, -69.960
1327.8400, -70.001
1327.8600, -70.018
1327.8800, -70.070
1327.9000, -70.154
1327.9200, -70.258
1327.9400, -70.240
1327.9600, -70.337
1327.9800, -70.437
1328.0000, -70.411
1328.0200, -70.527
1328.0400, -70.429
1328.0600, -70.517
1328.0800, -70.536
1328.1000, -70.664
1328.1200, -70.685
1328.1400, -70.705
1328.1600, -70.724
1328.1800, -70.814
1328.2000, -70.694
1328.2200, -70.842
1328.2400, -70.781
1328.2600, -70.815
1328.2800, -70.757
1328.3000, -70.825
1328.3200, -70.779
1328.3400, -70.773
1328.3600, -70.679
1328.3800, -70.786
1328.4000, -70.776
1328.4200, -70.803
1328.4400, -70.729
1328.4600, -70.749
1328.4800, -70.799
1328.5000, -70.802
1328.5200, -70.808
1328.5400, -70.875
1328.5600, -70.873
1328.5800, -70.776
1328.6000, -70.868
1328.6200, -70.842
1328.6400, -70.909
1328.6600, -70.966
1328.6800, -71.062
1328.7000, -71.110
1328.7200, -71.157
1328.7400, -71.140
1328.7600, -71.287
1328.7800, -71.288
1328.8000, -71.226
1328.8200, -71.316
1328.8400, -71.451
1328.8600, -71.456
1328.8800, -71.546
1328.9000, -71.548
1328.9200, -71.665
1328.9400, -71.702
1328.9600, -71.702
1328.9800, -71.748
1329.0000, -71.786
1329.0200, -71.887
1329.0400, -71.864
1329.0600, -71.829
1329.0800, -71.831
1329.1000, -71.803
1329.1200, -71.913
1329.1400, -71.760
1329.1600, -71.765
1329.1800, -71.910
1329.2000, -71.758
1329.2200, -71.871
1329.2400, -71.798
1329.2600, -71.777
1329.2800, -71.731
1329.3000, -71.768
1329.3200, -71.774
1329.3400, -71.719
1329.3600, -71.771
1329.3800, -71.686
1329.4000, -71.699
1329.4200, -71.760
1329.4400, -71.698
1329.4600, -71.748
1329.4800, -71.710
1329.5000, -71.874
1329.5200, -71.817
1329.5400, -71.670
1329.5600, -71.889
1329.5800, -71.741
1329.6000, -71.856
1329.6200, -71.778
1329.6400, -71.816
1329.6600, -72.001
1329.6800, -72.000
1329.7000, -71.984
1329.7200, -72.084
1329.7400, -72.111
1329.7600, -72.182
1329.7800, -72.150
1329.8000, -72.143
1329.8200, -72.218
1329.8400, -72.283
1329.8600, -72.287
1329.8800, -72.376
1329.9000, -72.423
1329.9200, -72.479
1329.9400, -72.511
1329.9600, -72.564
1329.9800, -72.656
1330.0000, -72.661
1330.0200, -72.644
1330.0400, -72.609
1330.0600, -72.715
1330.0800, -72.728
1330.1000, -72.791
1330.1200, -72.672
1330.1400, -72.813
1330.1600, -72.700
1330.1800, -72.767
1330.2000, -72.759
1330.2200, -72.747
1330.2400, -72.781
1330.2600, -72.682
1330.2800, -72.727
1330.3000, -72.756
1330.3200, -72.637
1330.3400, -72.721
1330.3600, -72.724
1330.3800, -72.634
1330.4000, -72.641
1330.4200, -72.739
1330.4400, -72.637
1330.4600, -72.605
1330.4800, -72.693
1330.5000, -72.704
1330.5200, -72.628
1330.5400, -72.659
1330.5600, -72.584
1330.5800, -72.778
1330.6000, -72.727
1330.6200, -72.700
1330.6400, -72.811
1330.6600, -72.782
1330.6800, -72.757
1330.7000, -72.889
1330.7200, -72.887
1330.7400, -72.870
1330.7600, -72.965
1330.7800, -72.916
1330.8000, -73.039
1330.8200, -72.936
1330.8400, -73.076
1330.8600, -73.044
1330.8800, -73.026
1330.9000, -73.093
1330.9200, -73.135
1330.9400, -73.073
1330.9600, -73.168
1330.9800, -73.194
1331.0000, -73.107
1331.0200, -73.259
1331.0400, -73.031
1331.0600, -73.158
1331.0800, -73.084
1331.1000, -73.014
1331.1200, -72.955
1331.1400, -72.876
1331.1600, -72.913
1331.1800, -73.011
1331.2000, -72.938
1331.2200, -72.872
1331.2400, -72.952
1331.2600, -72.864
1331.2800, -72.833
1331.3000, -72.817
1331.3200, -72.765
1331.3400, -72.832
1331.3600, -72.710
1331.3800, -72.757
1331.4000, -72.715
1331.4200, -72.678
1331.4400, -72.633
1331.4600, -72.753
1331.4800, -72.671
1331.5000, -72.564
1331.5200, -72.594
1331.5400, -72.689
1331.5600, -72.502
1331.5800, -72.688
1331.6000, -72.578
1331.6200, -72.601
1331.6400, -72.694
1331.6600, -72.780
1331.6800, -72.807
1331.7000, -72.659
1331.7200, -72.716
1331.7400, -72.760
1331.7600, -72.652
1331.7800, -72.626
1331.8000, -72.732
1331.8200, -72.754
1331.8400, -72.712
1331.8600, -72.724
1331.8800, -72.734
1331.9000, -72.708
1331.9200, -72.547
1331.9400, -72.603
1331.9600, -72.607
1331.9800, -72.562
1332.0000, -72.537
1332.0200, -72.445
1332.0400, -72.490
1332.0600, -72.424
1332.0800, -72.314
1332.1000, -72.190
1332.1200, -72.188
1332.1400, -72.177
1332.1600, -72.104
1332.1800, -71.996
1332.2000, -71.873
1332.2200, -71.778
1332.2400, -71.761
1332.2600, -71.750
1332.2800, -71.650
1332.3000, -71.693
1332.3200, -71.635
1332.3400, -71.565
1332.3600, -71.626
1332.3800, -71.588
1332.4000, -71.473
1332.4200, -71.410
1332.4400, -71.532
1332.4600, -71.596
1332.4800, -71.411
1332.5000, -71.420
1332.5200, -71.409
1332.5400, -71.238
1332.5600, -71.392
1332.5800, -71.387
1332.6000, -71.335
1332.6200, -71.373
1332.6400, -71.356
1332.6600, -71.377
1332.6800, -71.341
1332.7000, -71.452
1332.7200, -71.392
1332.7400, -71.278
1332.7600, -71.354
1332.7800, -71.309
1332.8000, -71.355
1332.8200, -71.372
1332.8400, -71.265
1332.8600, -71.282
1332.8800, -71.220
1332.9000, -71.242
1332.9200, -71.345
1332.9400, -71.232
1332.9600, -71.083
1332.9800, -71.057
1333.0000, -70.987
1333.0200, -70.971
1333.0400, -70.945
1333.0600, -70.814
1333.0800, -70.873
1333.1000, -70.828
1333.1200, -70.755
1333.1400, -70.642
1333.1600, -70.652
1333.1800, -70.566
1333.2000, -70.570
1333.2200, -70.430
1333.2400, -70.398
1333.2600, -70.342
1333.2800, -70.199
1333.3000, -70.338
1333.3200, -70.123
1333.3400, -70.069
1333.3600, -70.074
1333.3800, -70.077
1333.4000, -69.961
1333.4200, -70.041
1333.4400, -70.033
1333.4600, -69.972
1333.4800, -69.974
1333.5000, -69.937
1333.5200, -69.896
1333.5400, -69.949
1333.5600, -69.882
1333.5800, -69.823
1333.6000, -69.904
1333.6200, -69.710
1333.6400, -69.807
1333.6600, -69.811
1333.6800, -69.817
1333.7000, -69.785
1333.7200, -69.729
1333.7400, -69.720
1333.7600, -69.917
1333.7800, -69.724
1333.8000, -69.760
1333.8200, -69.855
1333.8400, -69.771
1333.8600, -69.690
1333.8800, -69.745
1333.9000, -69.652
1333.9200, -69.680
1333.9400, -69.654
1333.9600, -69.664
1333.9800, -69.596
1334.0000, -69.589
1334.0200, -69.531
1334.0400, -69.482
1334.0600, -69.438
1334.0800, -69.341
1334.1000, -69.409
1334.1200, -69.260
1334.1400, -69.231
1334.1600, -69.224
1334.1800, -69.231
1334.2000, -69.143
1334.2200, -69.160
1334.2400, -68.948
1334.2600, -68.951
1334.2800, -68.987
1334.3000, -68.934
1334.3200, -68.941
1334.3400, -68.907
1334.3600, -68.894
1334.3800, -68.720
1334.4000, -68.753
1334.4200, -68.760
1334.4400, -68.811
1334.4600, -68.748
1334.4800, -68.775
1334.5000, -68.774
1334.5200, -68.814
1334.5400, -68.804
1334.5600, -68.630
1334.5800, -68.754
1334.6000, -68.803
1334.6200, -68.739
1334.6400, -68.762
1334.6600, -68.844
1334.6800, -68.823
1334.7000, -68.745
1334.7200, -68.802
1334.7400, -68.816
1334.7600, -68.838
1334.7800, -68.835
1334.8000, -68.853
1334.8200, -68.886
1334.8400, -68.800
1334.8600, -68.772
1334.8800, -68.834
1334.9000, -68.970
1334.9200, -68.911
1334.9400, -68.882
1334.9600, -68.843
1334.9800, -68.762
1335.0000, -68.705
1335.0200, -68.781
1335.0400, -68.678
1335.0600, -68.607
1335.0800, -68.694
1335.1000, -68.604
1335.1200, -68.606
1335.1400, -68.591
1335.1600, -68.564
1335.1800, -68.513
1335.2000, -68.441
1335.2200, -68.347
1335.2400, -68.288
1335.2600, -68.410
1335.2800, -68.451
1335.3000, -68.389
1335.3200, -68.273
1335.3400, -68.336
1335.3600, -68.369
1335.3800, -68.290
1335.4000, -68.292
1335.4200, -68.214
1335.4400, -68.286
1335.4600, -68.225
1335.4800, -68.310
1335.5000, -68.264
1335.5200, -68.179
1335.5400, -68.324
1335.5600, -68.381
1335.5800, -68.366
1335.6000, -68.303
1335.6200, -68.454
1335.6400, -68.206
1335.6600, -68.289
1335.6800, -68.405
1335.7000, -68.262
1335.7200, -68.379
1335.7400, -68.277
1335.7600, -68.398
1335.7800, -68.504
1335.8000, -68.411
1335.8200, -68.376
1335.8400, -68.372
1335.8600, -68.334
1335.8800, -68.354
1335.9000, -68.430
1335.9200, -68.329
1335.9400, -68.437
1335.9600, -68.358
1335.9800, -68.259
1336.0000, -68.283
1336.0200, -68.344
1336.0400, -68.302
1336.0600, -68.241
1336.0800, -68.221
1336.1000, -68.160
1336.1200, -68.079
1336.1400, -68.189
1336.1600, -68.144
1336.1800, -68.051
1336.2000, -68.025
1336.2200, -68.018
1336.2400, -68.080
1336.2600, -67.937
1336.2800, -67.939
1336.3000, -67.960
1336.3200, -67.946
1336.3400, -67.883
1336.3600, -67.861
1336.3800, -67.929
1336.4000, -67.897
1336.4200, -67.911
1336.4400, -67.812
1336.4600, -67.908
1336.4800, -67.860
1336.5000, -67.992
1336.5200, -67.893
1336.5400, -67.961
1336.5600, -67.956
1336.5800, -67.951
1336.6000, -68.082
1336.6200, -68.045
1336.6400, -68.072
1336.6600, -68.112
1336.6800, -68.003
1336.7000, -68.209
1336.7200, -68.107
1336.7400, -68.211
1336.7600, -68.279
1336.7800, -68.262
1336.8000, -68.222
1336.8200, -68.237
1336.8400, -68.193
1336.8600, -68.196
1336.8800, -68.173
1336.9000, -68.155
1336.9200, -68.127
1336.9400, -68.099
1336.9600, -68.161
1336.9800, -68.178
1337.0000, -68.073
1337.0200, -67.927
1337.0400, -67.907
1337.0600, -67.867
1337.0800, -68.046
1337.1000, -67.886
1337.1200, -67.775
1337.1400, -67.794
1337.1600, -67.662
1337.1800, -67.715
1337.2000, -67.770
1337.2200, -67.695
1337.2400, -67.555
1337.2600, -67.640
1337.2800, -67.605
1337.3000, -67.608
1337.3200, -67.464
1337.3400, -67.539
1337.3600, -67.475
1337.3800, -67.594
1337.4000, -67.572
1337.4200, -67.508
1337.4400, -67.496
1337.4600, -67.592
1337.4800, -67.537
1337.5000, -67.589
1337.5200, -67.629
1337.5400, -67.616
1337.5600, -67.458
1337.5800, -67.760
1337.6000, -67.652
1337.6200, -67.745
1337.6400, -67.691
1337.6600, -67.785
1337.6800, -67.843
1337.7000, -67.862
1337.7200, -67.788
1337.7400, -67.685
1337.7600, -67.804
1337.7800, -67.849
1337.8000, -67.792
1337.8200, -67.844
1337.8400, -67.766
1337.8600, -67.925
1337.8800, -67.781
1337.9000, -67.796
1337.9200, -67.861
1337.9400, -67.773
1337.9600, -67.864
1337.9800, -67.687
1338.0000, -67.698
1338.0200, -67.681
1338.0400, -67.626
1338.0600, -67.635
1338.0800, -67.600
1338.1000, -67.598
1338.1200, -67.622
1338.1400, -67.563
1338.1600, -67.573
1338.1800, -67.546
1338.2000, -67.488
1338.2200, -67.589
1338.2400, -67.551
1338.2600, -67.479
1338.2800, -67.475
1338.3000, -67.506
1338.3200, -67.431
1338.3400, -67.485
1338.3600, -67.518
1338.3800, -67.608
1338.4000, -67.534
1338.4200, -67.500
1338.4400, -67.688
1338.4600, -67.563
1338.4800, -67.618
1338.5000, -67.636
1338.5200, -67.727
1338.5400, -67.676
1338.5600, -67.649
1338.5800, -67.791
1338.6000, -67.755
1338.6200, -67.805
1338.6400, -67.847
1338.6600, -67.844
1338.6800, -67.799
1338.7000, -67.898
1338.7200, -67.877
1338.7400, -67.930
1338.7600, -67.846
1338.7800, -67.917
1338.8000, -67.939
1338.8200, -68.017
1338.8400, -67.926
1338.8600, -67.908
1338.8800, -67.980
1338.9000, -67.900
1338.9200, -67.997
1338.9400, -67.978
1338.9600, -67.924
1338.9800, -67.885
1339.0000, -67.879
1339.0200, -67.834
1339.0400, -67.932
1339.0600, -67.963
1339.0800, -67.908
1339.1000, -67.871
1339.1200, -67.809
1339.1400, -67.804
1339.1600, -67.851
1339.1800, -67.779
1339.2000, -67.762
1339.2200, -67.764
1339.2400, -67.713
1339.2600, -67.795
1339.2800, -67.740
1339.3000, -67.812
1339.3200, -67.774
1339.3400, -67.816
1339.3600, -67.775
1339.3800, -67.888
1339.4000, -67.921
1339.4200, -67.978
1339.4400, -67.987
1339.4600, -68.120
1339.4800, -68.070
1339.5000, -68.108
1339.5200, -68.224
1339.5400, -68.291
1339.5600, -68.354
1339.5800, -68.386
1339.6000, -68.392
1339.6200, -68.546
1339.6400, -68.514
1339.6600, -68.605
1339.6800, -68.699
1339.7000, -68.540
1339.7200, -68.628
1339.7400, -68.822
1339.7600, -68.783
1339.7800, -68.729
1339.8000, -68.768
1339.8200, -68.854
1339.8400, -68.872
1339.8600, -68.745
1339.8800, -68.944
1339.9000, -68.929
1339.9200, -68.839
1339.9400, -68.924
1339.9600, -68.941
1339.9800, -68.980
1340.0000, -68.982
1340.0200, -68.929
1340.0400, -69.001
1340.0600, -68.970
1340.0800, -69.020
1340.1000, -68.914
1340.1200, -68.984
1340.1400, -69.022
1340.1600, -68.994
1340.1800, -69.083
1340.2000, -69.037
1340.2200, -69.129
1340.2400, -69.133
1340.2600, -69.165
1340.2800, -69.276
1340.3000, -69.114
1340.3200, -69.230
1340.3400, -69.339
1340.3600, -69.295
1340.3800, -69.352
1340.4000, -69.358
1340.4200, -69.468
1340.4400, -69.520
1340.4600, -69.631
1340.4800, -69.670
1340.5000, -69.669
1340.5200, -69.773
1340.5400, -69.776
1340.5600, -69.819
1340.5800, -69.825
1340.6000, -69.911
1340.6200, -69.921
1340.6400, -69.974
1340.6600, -70.003
1340.6800, -69.960
1340.7000, -70.106
1340.7200, -70.145
1340.7400, -70.059
1340.7600, -70.115
1340.7800, -70.135
1340.8000, -70.239
1340.8200, -70.212
1340.8400, -70.198
1340.8600, -70.253
1340.8800, -70.289
1340.9000, -70.310
1340.9200, -70.282
1340.9400, -70.339
1340.9600, -70.326
1340.9800, -70.258
1341.0000, -70.387
1341.0200, -70.321
1341.0400, -70.454
1341.0600, -70.397
1341.0800, -70.463
1341.1000, -70.411
1341.1200, -70.465
1341.1400, -70.606
1341.1600, -70.547
1341.1800, -70.536
1341.2000, -70.650
1341.2200, -70.679
1341.2400, -70.651
1341.2600, -70.671
1341.2800, -70.782
1341.3000, -70.765
1341.3200, -70.914
1341.3400, -70.854
1341.3600, -70.937
1341.3800, -70.887
1341.4000, -70.971
1341.4200, -70.990
1341.4400, -71.134
1341.4600, -71.076
1341.4800, -71.257
1341.5000, -71.325
1341.5200, -71.229
1341.5400, -71.342
1341.5600, -71.346
1341.5800, -71.343
1341.6000, -71.394
1341.6200, -71.518
1341.6400, -71.548
1341.6600, -71.562
1341.6800, -71.621
1341.7000, -71.705
1341.7200, -71.740
1341.7400, -71.835
1341.7600, -71.635
1341.7800, -71.756
1341.8000, -71.715
1341.8200, -71.784
1341.8400, -71.912
1341.8600, -71.716
1341.8800, -71.782
1341.9000, -71.886
1341.9200, -71.871
1341.9400, -71.958
1341.9600, -72.013
1341.9800, -72.018
1342.0000, -72.023
1342.0200, -72.033
1342.0400, -72.071
1342.0600, -72.004
1342.0800, -72.152
1342.1000, -72.083
1342.1200, -72.175
1342.1400, -72.150
1342.1600, -72.273
1342.1800, -72.299
1342.2000, -72.351
1342.2200, -72.426
1342.2400, -72.411
1342.2600, -72.519
1342.2800, -72.427
1342.3000, -72.505
1342.3200, -72.512
1342.3400, -72.577
1342.3600, -72.640
1342.3800, -72.681
1342.4000, -72.847
1342.4200, -72.858
1342.4400, -72.784
1342.4600, -72.852
1342.4800, -72.933
1342.5000, -73.114
1342.5200, -73.045
1342.5400, -73.134
1342.5600, -73.099
1342.5800, -73.274
1342.6000, -73.253
1342.6200, -73.169
1342.6400, -73.412
1342.6600, -73.314
1342.6800, -73.258
1342.7000, -73.446
1342.7200, -73.380
1342.7400, -73.427
1342.7600, -73.563
1342.7800, -73.516
1342.8000, -73.559
1342.8200, -73.547
1342.8400, -73.566
1342.8600, -73.504
1342.8800, -73.478
1342.9000, -73.446
1342.9200, -73.463
1342.9400, -73.655
1342.9600, -73.533
1342.9800, -73.610
1343.0000, -73.620
1343.0200, -73.487
1343.0400, -73.528
1343.0600, -73.566
1343.0800, -73.574
1343.1000, -73.553
1343.1200, -73.620
1343.1400, -73.539
1343.1600, -73.577
1343.1800, -73.490
1343.2000, -73.470
1343.2200, -73.589
1343.2400, -73.537
1343.2600, -73.505
1343.2800, -73.457
1343.3000, -73.501
1343.3200, -73.552
1343.3400, -73.612
1343.3600, -73.558
1343.3800, -73.756
1343.4000, -73.675
1343.4200, -73.766
1343.4400, -73.746
1343.4600, -73.776
1343.4800, -73.885
1343.5000, -73.758
1343.5200, -73.843
1343.5400, -73.818
1343.5600, -73.958
1343.5800, -73.876
1343.6000, -73.887
1343.6200, -73.831
1343.6400, -73.806
1343.6600, -73.975
1343.6800, -73.912
1343.7000, -73.914
1343.7200, -73.911
1343.7400, -73.857
1343.7600, -73.802
1343.7800, -74.066
1343.8000, -73.897
1343.8200, -74.010
1343.8400, -73.853
1343.8600, -73.853
1343.8800, -73.800
1343.9000, -73.962
1343.9200, -73.738
1343.9400, -73.862
1343.9600, -73.883
1343.9800, -73.686
1344.0000, -73.702
1344.0200, -73.698
1344.0400, -73.788
1344.0600, -73.693
1344.0800, -73.588
1344.1000, -73.591
1344.1200, -73.545
1344.1400, -73.496
1344.1600, -73.593
1344.1800, -73.555
1344.2000, -73.527
1344.2200, -73.455
1344.2400, -73.550
1344.2600, -73.460
1344.2800, -73.451
1344.3000, -73.500
1344.3200, -73.378
1344.3400, -73.333
1344.3600, -73.431
1344.3800, -73.411
1344.4000, -73.315
1344.4200, -73.420
1344.4400, -73.428
1344.4600, -73.337
1344.4800, -73.435
1344.5000, -73.403
1344.5200, -73.338
1344.5400, -73.247
1344.5600, -73.385
1344.5800, -73.370
1344.6000, -73.299
1344.6200, -73.324
1344.6400, -73.196
1344.6600, -73.347
1344.6800, -73.383
1344.7000, -73.207
1344.7200, -73.161
1344.7400, -73.196
1344.7600, -73.150
1344.7800, -73.122
1344.8000, -73.032
1344.8200, -73.016
1344.8400, -72.929
1344.8600, -72.862
1344.8800, -72.813
1344.9000, -72.753
1344.9200, -72.785
1344.9400, -72.745
1344.9600, -72.548
1344.9800, -72.628
1345.0000, -72.560
1345.0200, -72.522
1345.0400, -72.309
1345.0600, -72.293
1345.0800, -72.316
1345.1000, -72.171
1345.1200, -72.223
1345.1400, -72.162
1345.1600, -72.183
1345.1800, -72.229
1345.2000, -72.187
1345.2200, -72.143
1345.2400, -72.047
1345.2600, -72.104
1345.2800, -71.965
1345.3000, -72.093
1345.3200, -71.985
1345.3400, -71.978
1345.3600, -71.861
1345.3800, -71.953
1345.4000, -71.877
1345.4200, -71.934
1345.4400, -71.782
1345.4600, -71.805
1345.4800, -71.785
1345.5000, -71.850
1345.5200, -71.729
1345.5400, -71.726
1345.5600, -71.635
1345.5800, -71.771
1345.6000, -71.786
1345.6200, -71.634
1345.6400, -71.629
1345.6600, -71.514
1345.6800, -71.608
1345.7000, -71.476
1345.7200, -71.457
1345.7400, -71.436
1345.7600, -71.400
1345.7800, -71.384
1345.8000, -71.283
1345.8200, -71.242
1345.8400, -71.220
1345.8600, -71.161
1345.8800, -71.159
1345.9000, -71.016
1345.9200, -71.118
1345.9400, -71.064
1345.9600, -71.051
1345.9800, -71.010
1346.0000, -71.047
1346.0200, -70.896
1346.0400, -70.811
1346.0600, -70.794
1346.0800, -70.689
1346.1000, -70.656
1346.1200, -70.660
1346.1400, -70.608
1346.1600, -70.667
1346.1800, -70.493
1346.2000, -70.421
1346.2200, -70.460
1346.2400, -70.443
1346.2600, -70.380
1346.2800, -70.363
1346.3000, -70.299
1346.3200, -70.391
1346.3400, -70.248
1346.3600, -70.225
1346.3800, -70.251
1346.4000, -70.214
1346.4200, -70.299
1346.4400, -70.205
1346.4600, -70.253
1346.4800, -70.387
1346.5000, -70.252
1346.5200, -70.160
1346.5400, -70.271
1346.5600, -70.263
1346.5800, -70.213
1346.6000, -70.155
1346.6200, -70.176
1346.6400, -70.149
1346.6600, -70.265
1346.6800, -70.149
1346.7000, -70.157
1346.7200, -70.100
1346.7400, -70.004
1346.7600, -69.998
1346.7800, -69.979
1346.8000, -69.917
1346.8200, -69.811
1346.8400, -69.830
1346.8600, -69.641
1346.8800, -69.637
1346.9000, -69.745
1346.9200, -69.643
1346.9400, -69.569
1346.9600, -69.476
1346.9800, -69.487
1347.0000, -69.519
1347.0200, -69.361
1347.0400, -69.457
1347.0600, -69.338
1347.0800, -69.337
1347.1000, -69.504
1347.1200, -69.346
1347.1400, -69.253
1347.1600, -69.310
1347.1800, -69.235
1347.2000, -69.147
1347.2200, -69.227
1347.2400, -69.174
1347.2600, -69.193
1347.2800, -69.106
1347.3000, -69.226
1347.3200, -69.021
1347.3400, -69.080
1347.3600, -69.115
1347.3800, -69.128
1347.4000, -69.115
1347.4200, -69.071
1347.4400, -69.143
1347.4600, -69.132
1347.4800, -69.155
1347.5000, -69.100
1347.5200, -69.187
1347.5400, -69.166
1347.5600, -69.117
1347.5800, -69.111
1347.6000, -69.086
1347.6200, -69.162
1347.6400, -69.157
1347.6600, -69.139
1347.6800, -68.989
1347.7000, -69.154
1347.7200, -68.991
1347.7400, -69.117
1347.7600, -69.228
1347.7800, -69.178
1347.8000, -69.088
1347.8200, -69.090
1347.8400, -69.067
1347.8600, -69.111
1347.8800, -69.057
1347.9000, -69.016
1347.9200, -69.014
1347.9400, -69.138
1347.9600, -68.982
1347.9800, -68.896
1348.0000, -68.941
1348.0200, -68.773
1348.0400, -68.740
1348.0600, -68.772
1348.0800, -68.700
1348.1000, -68.820
1348.1200, -68.742
1348.1400, -68.709
1348.1600, -68.615
1348.1800, -68.606
1348.2000, -68.584
1348.2200, -68.597
1348.2400, -68.523
1348.2600, -68.535
1348.2800, -68.595
1348.3000, -68.455
1348.3200, -68.548
1348.3400, -68.518
1348.3600, -68.576
1348.3800, -68.627
1348.4000, -68.465
1348.4200, -68.519
1348.4400, -68.655
1348.4600, -68.603
1348.4800, -68.716
1348.5000, -68.698
1348.5200, -68.540
1348.5400, -68.684
1348.5600, -68.640
1348.5800, -68.668
1348.6000, -68.573
1348.6200, -68.840
1348.6400, -68.685
1348.6600, -68.566
1348.6800, -68.599
1348.7000, -68.612
1348.7200, -68.590
1348.7400, -68.682
1348.7600, -68.443
1348.7800, -68.545
1348.8000, -68.538
1348.8200, -68.581
1348.8400, -68.517
1348.8600, -68.376
1348.8800, -68.466
1348.9000, -68.449
1348.9200, -68.398
1348.9400, -68.462
1348.9600, -68.455
1348.9800, -68.395
1349.0000, -68.176
1349.0200, -68.267
1349.0400, -68.298
1349.0600, -68.273
1349.0800, -68.283
1349.1000, -68.303
1349.1200, -68.225
1349.1400, -68.148
1349.1600, -68.226
1349.1800, -68.157
1349.2000, -68.057
1349.2200, -68.230
1349.2400, -68.154
1349.2600, -68.134
1349.2800, -68.161
1349.3000, -68.074
1349.3200, -68.178
1349.3400, -68.016
1349.3600, -68.193
1349.3800, -68.209
1349.4000, -68.178
1349.4200, -68.291
1349.4400, -68.289
1349.4600, -68.254
1349.4800, -68.220
1349.5000, -68.326
1349.5200, -68.078
1349.5400, -68.249
1349.5600, -68.086
1349.5800, -68.306
1349.6000, -68.246
1349.6200, -68.342
1349.6400, -68.251
1349.6600, -68.284
1349.6800, -68.213
1349.7000, -68.311
1349.7200, -68.196
1349.7400, -68.284
1349.7600, -68.279
1349.7800, -68.274
1349.8000, -68.222
1349.8200, -68.244
1349.8400, -68.155
1349.8600, -68.201
1349.8800, -68.221
1349.9000, -68.194
1349.9200, -68.164
1349.9400, -68.095
1349.9600, -68.093
1349.9800, -68.048
1350.0000, -68.141
1350.0200, -68.120
1350.0400, -68.013
1350.0600, -68.091
1350.0800, -67.977
1350.1000, -67.975
1350.1200, -67.900
1350.1400, -68.022
1350.1600, -68.073
1350.1800, -67.932
1350.2000, -67.856
1350.2200, -67.895
1350.2400, -67.973
1350.2600, -67.773
1350.2800, -67.958
1350.3000, -68.021
1350.3200, -68.069
1350.3400, -68.034
1350.3600, -68.140
1350.3800, -68.032
1350.4000, -68.239
1350.4200, -68.115
1350.4400, -68.182
1350.4600, -68.074
1350.4800, -68.347
1350.5000, -68.211
1350.5200, -68.251
1350.5400, -68.224
1350.5600, -68.117
1350.5800, -68.168
1350.6000, -68.260
1350.6200, -68.324
1350.6400, -68.217
1350.6600, -68.314
1350.6800, -68.292
1350.7000, -68.187
1350.7200, -68.146
1350.7400, -68.193
1350.7600, -68.240
1350.7800, -68.246
1350.8000, -68.176
1350.8200, -68.198
1350.8400, -68.196
1350.8600, -68.207
1350.8800, -68.247
1350.9000, -68.119
1350.9200, -68.066
1350.9400, -68.098
1350.9600, -67.945
1350.9800, -68.022
1351.0000, -68.084
1351.0200, -68.051
1351.0400, -67.965
1351.0600, -68.010
1351.0800, -67.920
1351.1000, -67.953
1351.1200, -67.993
1351.1400, -67.904
1351.1600, -68.119
1351.1800, -67.896
1351.2000, -67.977
1351.2200, -68.038
1351.2400, -67.966
1351.2600, -67.891
1351.2800, -67.894
1351.3000, -67.942
1351.3200, -67.963
1351.3400, -67.997
1351.3600, -68.063
1351.3800, -68.050
1351.4000, -68.026
1351.4200, -68.178
1351.4400, -68.095
1351.4600, -68.179
1351.4800, -68.196
1351.5000, -68.162
1351.5200, -68.339
1351.5400, -68.389
1351.5600, -68.384
1351.5800, -68.383
1351.6000, -68.500
1351.6200, -68.464
1351.6400, -68.415
1351.6600, -68.527
1351.6800, -68.437
1351.7000, -68.402
1351.7200, -68.421
1351.7400, -68.520
1351.7600, -68.525
1351.7800, -68.467
1351.8000, -68.473
1351.8200, -68.477
1351.8400, -68.530
1351.8600, -68.685
1351.8800, -68.599
1351.9000, -68.609
1351.9200, -68.611
1351.9400, -68.589
1351.9600, -68.524
1351.9800, -68.580
1352.0000, -68.430
1352.0200, -68.533
1352.0400, -68.467
1352.0600, -68.336
1352.0800, -68.414
1352.1000, -68.388
1352.1200, -68.419
1352.1400, -68.570
1352.1600, -68.428
1352.1800, -68.476
1352.2000, -68.390
1352.2200, -68.546
1352.2400, -68.460
1352.2600, -68.473
1352.2800, -68.430
1352.3000, -68.421
1352.3200, -68.493
1352.3400, -68.597
1352.3600, -68.554
1352.3800, -68.630
1352.4000, -68.820
1352.4200, -68.729
1352.4400, -68.797
1352.4600, -68.961
1352.4800, -69.078
1352.5000, -69.053
1352.5200, -69.172
1352.5400, -69.218
1352.5600, -69.419
1352.5800, -69.397
1352.6000, -69.403
1352.6200, -69.353
1352.6400, -69.458
1352.6600, -69.500
1352.6800, -69.461
1352.7000, -69.421
1352.7200, -69.491
1352.7400, -69.411
1352.7600, -69.513
1352.7800, -69.548
1352.8000, -69.431
1352.8200, -69.384
1352.8400, -69.468
1352.8600, -69.375
1352.8800, -69.511
1352.9000, -69.416
1352.9200, -69.527
1352.9400, -69.435
1352.9600, -69.456
1352.9800, -69.589
1353.0000, -69.590
1353.0200, -69.638
1353.0400, -69.537
1353.0600, -69.671
1353.0800, -69.825
1353.1000, -69.752
1353.1200, -69.845
1353.1400, -69.896
1353.1600, -69.944
1353.1800, -70.082
1353.2000, -70.041
1353.2200, -70.095
1353.2400, -70.222
1353.2600, -70.336
1353.2800, -70.287
1353.3000, -70.271
1353.3200, -70.243
1353.3400, -70.333
1353.3600, -70.398
1353.3800, -70.434
1353.4000, -70.449
1353.4200, -70.498
1353.4400, -70.400
1353.4600, -70.277
1353.4800, -70.309
1353.5000, -70.377
1353.5200, -70.468
1353.5400, -70.467
1353.5600, -70.384
1353.5800, -70.591
1353.6000, -70.549
1353.6200, -70.685
1353.6400, -70.672
1353.6600, -70.689
1353.6800, -70.710
1353.7000, -70.815
1353.7200, -70.909
1353.7400, -70.902
1353.7600, -70.873
1353.7800, -71.027
1353.8000, -70.994
1353.8200, -71.044
1353.8400, -71.120
1353.8600, -71.121
1353.8800, -71.122
1353.9000, -71.118
1353.9200, -71.244
1353.9400, -71.107
1353.9600, -71.204
1353.9800, -71.260
1354.0000, -71.173
1354.0200, -71.101
1354.0400, -71.165
1354.0600, -71.235
1354.0800, -71.325
1354.1000, -71.270
1354.1200, -71.350
1354.1400, -71.290
1354.1600, -71.418
1354.1800, -71.320
1354.2000, -71.410
1354.2200, -71.560
1354.2400, -71.639
1354.2600, -71.689
1354.2800, -71.609
1354.3000, -71.680
1354.3200, -71.815
1354.3400, -71.780
1354.3600, -71.850
1354.3800, -72.032
1354.4000, -71.913
1354.4200, -71.999
1354.4400, -72.173
1354.4600, -72.156
1354.4800, -72.180
1354.5000, -72.105
1354.5200, -72.030
1354.5400, -72.196
1354.5600, -72.279
1354.5800, -72.309
1354.6000, -72.299
1354.6200, -72.354
1354.6400, -72.362
1354.6600, -72.483
1354.6800, -72.578
1354.7000, -72.640
1354.7200, -72.597
1354.7400, -72.646
1354.7600, -72.850
1354.7800, -72.858
1354.8000, -73.051
1354.8200, -73.038
1354.8400, -73.071
1354.8600, -73.058
1354.8800, -72.999
1354.9000, -73.002
1354.9200, -72.992
1354.9400, -73.065
1354.9600, -73.039
1354.9800, -72.986
1355.0000, -72.979
1355.0200, -72.953
1355.0400, -73.068
1355.0600, -73.033
1355.0800, -73.090
1355.1000, -73.158
1355.1200, -73.080
1355.1400, -73.029
1355.1600, -73.116
1355.1800, -73.112
1355.2000, -73.083
1355.2200, -73.093
1355.2400, -73.015
1355.2600, -73.137
1355.2800, -73.014
1355.3000, -72.967
1355.3200, -73.033
1355.3400, -72.993
1355.3600, -73.046
1355.3800, -73.023
1355.4000, -73.084
1355.4200, -73.061
1355.4400, -73.122
1355.4600, -73.096
1355.4800, -73.135
1355.5000, -73.164
1355.5200, -73.221
1355.5400, -73.263
1355.5600, -73.321
1355.5800, -73.332
1355.6000, -73.278
1355.6200, -73.360
1355.6400, -73.419
1355.6600, -73.640
1355.6800, -73.547
1355.7000, -73.651
1355.7200, -73.628
1355.7400, -73.699
1355.7600, -73.770
1355.7800, -73.823
1355.8000, -74.017
1355.8200, -74.143
1355.8400, -74.125
1355.8600, -74.453
1355.8800, -74.588
1355.9000, -74.764
1355.9200, -74.684
1355.9400, -74.785
1355.9600, -74.735
1355.9800, -74.740
1356.0000, -74.551
1356.0200, -74.508
1356.0400, -74.398
1356.0600, -74.308
1356.0800, -74.136
1356.1000, -74.121
1356.1200, -74.074
1356.1400, -74.029
1356.1600, -73.868
1356.1800, -73.854
1356.2000, -73.996
1356.2200, -73.925
1356.2400, -73.824
1356.2600, -73.833
1356.2800, -73.996
1356.3000, -73.873
1356.3200, -74.009
1356.3400, -74.018
1356.3600, -74.024
1356.3800, -74.124
1356.4000, -74.154
1356.4200, -74.118
1356.4400, -74.197
1356.4600, -74.156
1356.4800, -74.138
1356.5000, -74.256
1356.5200, -74.283
1356.5400, -74.274
1356.5600, -74.456
1356.5800, -74.390
1356.6000, -74.460
1356.6200, -74.311
1356.6400, -74.370
1356.6600, -74.472
1356.6800, -74.423
1356.7000, -74.511
1356.7200, -74.511
1356.7400, -74.462
1356.7600, -74.554
1356.7800, -74.642
1356.8000, -74.522
1356.8200, -74.571
1356.8400, -74.601
1356.8600, -74.486
1356.8800, -74.635
1356.9000, -74.618
1356.9200, -74.588
1356.9400, -74.646
1356.9600, -74.533
1356.9800, -74.530
1357.0000, -74.612
1357.0200, -74.718
1357.0400, -74.726
1357.0600, -74.689
1357.0800, -74.771
1357.1000, -74.759
1357.1200, -74.920
1357.1400, -75.110
1357.1600, -75.111
1357.1800, -75.203
1357.2000, -75.186
1357.2200, -75.156
1357.2400, -75.184
1357.2600, -75.266
1357.2800, -75.218
1357.3000, -74.954
1357.3200, -74.972
1357.3400, -74.867
1357.3600, -74.718
1357.3800, -74.732
1357.4000, -74.559
1357.4200, -74.674
1357.4400, -74.494
1357.4600, -74.430
1357.4800, -74.316
1357.5000, -74.450
1357.5200, -74.454
1357.5400, -74.460
1357.5600, -74.421
1357.5800, -74.452
1357.6000, -74.459
1357.6200, -74.517
1357.6400, -74.389
1357.6600, -74.331
1357.6800, -74.347
1357.7000, -74.294
1357.7200, -74.293
1357.7400, -74.353
1357.7600, -74.344
1357.7800, -74.380
1357.8000, -74.467
1357.8200, -74.208
1357.8400, -74.263
1357.8600, -74.179
1357.8800, -74.173
1357.9000, -74.227
1357.9200, -74.170
1357.9400, -74.094
1357.9600, -74.055
1357.9800, -73.881
1358.0000, -73.979
1358.0200, -73.833
1358.0400, -73.612
1358.0600, -73.588
1358.0800, -73.601
1358.1000, -73.483
1358.1200, -73.445
1358.1400, -73.369
1358.1600, -73.319
1358.1800, -73.196
1358.2000, -73.175
1358.2200, -73.075
1358.2400, -73.210
1358.2600, -73.079
1358.2800, -73.098
1358.3000, -73.034
1358.3200, -72.967
1358.3400, -72.983
1358.3600, -72.986
1358.3800, -72.955
1358.4000, -72.889
1358.4200, -72.922
1358.4400, -72.903
1358.4600, -73.007
1358.4800, -72.990
1358.5000, -73.023
1358.5200, -73.009
1358.5400, -73.024
1358.5600, -72.959
1358.5800, -72.880
1358.6000, -72.723
1358.6200, -72.727
1358.6400, -72.600
1358.6600, -72.578
1358.6800, -72.428
1358.7000, -72.364
1358.7200, -72.272
1358.7400, -72.159
1358.7600, -72.244
1358.7800, -72.114
1358.8000, -72.106
1358.8200, -71.994
1358.8400, -71.973
1358.8600, -72.037
1358.8800, -72.045
1358.9000, -71.862
1358.9200, -71.811
1358.9400, -71.767
1358.9600, -71.649
1358.9800, -71.673
1359.0000, -71.623
1359.0200, -71.493
1359.0400, -71.400
1359.0600, -71.345
1359.0800, -71.368
1359.1000, -71.316
1359.1200, -71.121
1359.1400, -71.129
1359.1600, -70.987
1359.1800, -71.059
1359.2000, -70.989
1359.2200, -70.921
1359.2400, -70.860
1359.2600, -70.889
1359.2800, -70.736
1359.3000, -70.631
1359.3200, -70.784
1359.3400, -70.749
1359.3600, -70.682
1359.3800, -70.719
1359.4000, -70.614
1359.4200, -70.617
1359.4400, -70.670
1359.4600, -70.749
1359.4800, -70.650
1359.5000, -70.804
1359.5200, -70.956
1359.5400, -70.948
1359.5600, -71.099
1359.5800, -71.204
1359.6000, -71.167
1359.6200, -71.309
1359.6400, -71.238
1359.6600, -71.104
1359.6800, -71.042
1359.7000, -70.972
1359.7200, -70.911
1359.7400, -70.912
1359.7600, -70.877
1359.7800, -70.830
1359.8000, -70.705
1359.8200, -70.418
1359.8400, -70.402
1359.8600, -70.272
1359.8800, -70.244
1359.9000, -70.309
1359.9200, -70.130
1359.9400, -70.138
1359.9600, -70.043
1359.9800, -69.956
1360.0000, -69.824
1360.0200, -69.761
1360.0400, -69.643
1360.0600, -69.580
1360.0800, -69.615
1360.1000, -69.490
1360.1200, -69.523
1360.1400, -69.428
1360.1600, -69.428
1360.1800, -69.440
1360.2000, -69.306
1360.2200, -69.331
1360.2400, -69.284
1360.2600, -69.229
1360.2800, -69.267
1360.3000, -69.213
1360.3200, -69.182
1360.3400, -69.153
1360.3600, -69.215
1360.3800, -69.196
1360.4000, -69.184
1360.4200, -69.223
1360.4400, -69.119
1360.4600, -69.099
1360.4800, -69.099
1360.5000, -69.075
1360.5200, -68.980
1360.5400, -69.074
1360.5600, -69.067
1360.5800, -68.914
1360.6000, -68.959
1360.6200, -68.899
1360.6400, -68.941
1360.6600, -68.829
1360.6800, -68.887
1360.7000, -68.869
1360.7200, -68.888
1360.7400, -68.904
1360.7600, -68.969
1360.7800, -69.088
1360.8000, -69.012
1360.8200, -69.107
1360.8400, -69.138
1360.8600, -69.211
1360.8800, -69.210
1360.9000, -69.381
1360.9200, -69.388
1360.9400, -69.527
1360.9600, -69.421
1360.9800, -69.300
1361.0000, -69.158
1361.0200, -69.180
1361.0400, -69.159
1361.0600, -69.247
1361.0800, -69.095
1361.1000, -69.034
1361.1200, -68.924
1361.1400, -68.946
1361.1600, -68.960
1361.1800, -68.908
1361.2000, -68.918
1361.2200, -68.878
1361.2400, -68.738
1361.2600, -68.631
1361.2800, -68.640
1361.3000, -68.526
1361.3200, -68.525
1361.3400, -68.488
1361.3600, -68.366
1361.3800, -68.335
1361.4000, -68.310
1361.4200, -68.328
1361.4400, -68.243
1361.4600, -68.176
1361.4800, -68.314
1361.5000, -68.240
1361.5200, -68.228
1361.5400, -68.114
1361.5600, -68.259
1361.5800, -68.303
1361.6000, -68.351
1361.6200, -68.441
1361.6400, -68.435
1361.6600, -68.576
1361.6800, -68.658
1361.7000, -68.708
1361.7200, -69.028
1361.7400, -69.038
1361.7600, -69.325
1361.7800, -69.361
1361.8000, -69.370
1361.8200, -69.228
1361.8400, -69.106
1361.8600, -68.995
1361.8800, -68.829
1361.9000, -68.890
1361.9200, -68.763
1361.9400, -68.599
1361.9600, -68.502
1361.9800, -68.351
1362.0000, -68.316
1362.0200, -68.345
1362.0400, -68.318
1362.0600, -68.275
1362.0800, -68.359
1362.1000, -68.405
1362.1200, -68.480
1362.1400, -68.604
1362.1600, -68.387
1362.1800, -68.343
1362.2000, -68.350
1362.2200, -68.264
1362.2400, -68.220
1362.2600, -68.368
1362.2800, -68.268
1362.3000, -68.359
1362.3200, -68.351
1362.3400, -68.382
1362.3600, -68.531
1362.3800, -68.728
1362.4000, -68.897
1362.4200, -69.128
1362.4400, -69.515
1362.4600, -69.406
1362.4800, -69.623
1362.5000, -69.762
1362.5200, -69.734
1362.5400, -69.632
1362.5600, -69.478
1362.5800, -69.156
1362.6000, -69.060
1362.6200, -68.811
1362.6400, -68.663
1362.6600, -68.553
1362.6800, -68.371
1362.7000, -68.196
1362.7200, -68.129
1362.7400, -68.042
1362.7600, -68.123
1362.7800, -68.060
1362.8000, -68.005
1362.8200, -68.081
1362.8400, -68.089
1362.8600, -68.108
1362.8800, -68.104
1362.9000, -68.032
1362.9200, -68.087
1362.9400, -68.079
1362.9600, -68.075
1362.9800, -67.951
1363.0000, -67.896
1363.0200, -67.846
1363.0400, -67.917
1363.0600, -67.897
1363.0800, -67.865
1363.1000, -67.667
1363.1200, -67.655
1363.1400, -67.719
1363.1600, -67.735
1363.1800, -67.674
1363.2000, -67.633
1363.2200, -67.650
1363.2400, -67.632
1363.2600, -67.538
1363.2800, -67.612
1363.3000, -67.553
1363.3200, -67.558
1363.3400, -67.524
1363.3600, -67.576
1363.3800, -67.507
1363.4000, -67.437
1363.4200, -67.484
1363.4400, -67.521
1363.4600, -67.487
1363.4800, -67.475
1363.5000, -67.462
1363.5200, -67.581
1363.5400, -67.566
1363.5600, -67.588
1363.5800, -67.529
1363.6000, -67.500
1363.6200, -67.619
1363.6400, -67.559
1363.6600, -67.554
1363.6800, -67.738
1363.7000, -67.743
1363.7200, -67.619
1363.7400, -67.650
1363.7600, -67.609
1363.7800, -67.686
1363.8000, -67.688
1363.8200, -67.696
1363.8400, -67.707
1363.8600, -67.643
1363.8800, -67.634
1363.9000, -67.686
1363.9200, -67.611
1363.9400, -67.681
1363.9600, -67.622
1363.9800, -67.720
1364.0000, -67.603
1364.0200, -67.658
1364.0400, -67.637
1364.0600, -67.725
1364.0800, -67.705
1364.1000, -67.693
1364.1200, -67.731
1364.1400, -67.755
1364.1600, -67.779
1364.1800, -67.735
1364.2000, -67.800
1364.2200, -67.962
1364.2400, -67.838
1364.2600, -67.897
1364.2800, -67.945
1364.3000, -67.955
1364.3200, -67.910
1364.3400, -67.803
1364.3600, -67.864
1364.3800, -67.877
1364.4000, -67.847
1364.4200, -67.899
1364.4400, -67.802
1364.4600, -67.864
1364.4800, -67.741
1364.5000, -67.744
1364.5200, -67.762
1364.5400, -67.737
1364.5600, -67.836
1364.5800, -68.014
1364.6000, -68.114
1364.6200, -68.240
1364.6400, -68.393
1364.6600, -68.610
1364.6800, -68.870
1364.7000, -69.094
1364.7200, -69.370
1364.7400, -69.462
1364.7600, -69.735
1364.7800, -69.854
1364.8000, -69.632
1364.8200, -69.545
1364.8400, -69.394
1364.8600, -69.331
1364.8800, -69.168
1364.9000, -69.058
1364.9200, -68.986
1364.9400, -68.926
1364.9600, -68.750
1364.9800, -68.540
1365.0000, -68.455
1365.0200, -68.365
1365.0400, -68.425
1365.0600, -68.496
1365.0800, -68.393
1365.1000, -68.417
1365.1200, -68.414
1365.1400, -68.309
1365.1600, -68.334
1365.1800, -68.326
1365.2000, -68.321
1365.2200, -68.233
1365.2400, -68.283
1365.2600, -68.296
1365.2800, -68.389
1365.3000, -68.374
1365.3200, -68.268
1365.3400, -68.430
1365.3600, -68.431
1365.3800, -68.504
1365.4000, -68.582
1365.4200, -68.700
1365.4400, -68.799
1365.4600, -68.874
1365.4800, -68.851
1365.5000, -68.942
1365.5200, -68.940
1365.5400, -68.870
1365.5600, -69.003
1365.5800, -69.040
1365.6000, -69.116
1365.6200, -69.075
1365.6400, -69.156
1365.6600, -69.251
1365.6800, -69.210
1365.7000, -69.190
1365.7200, -69.139
1365.7400, -69.131
1365.7600, -69.104
1365.7800, -68.944
1365.8000, -69.047
1365.8200, -69.008
1365.8400, -68.944
1365.8600, -68.893
1365.8800, -68.872
1365.9000, -68.893
1365.9200, -68.777
1365.9400, -68.906
1365.9600, -68.838
1365.9800, -68.815
1366.0000, -68.966
1366.0200, -68.897
1366.0400, -68.902
1366.0600, -69.002
1366.0800, -68.947
1366.1000, -68.992
1366.1200, -69.031
1366.1400, -69.026
1366.1600, -69.143
1366.1800, -69.144
1366.2000, -69.052
1366.2200, -69.139
1366.2400, -69.131
1366.2600, -69.128
1366.2800, -69.222
1366.3000, -69.134
1366.3200, -69.243
1366.3400, -69.315
1366.3600, -69.309
1366.3800, -69.309
1366.4000, -69.310
1366.4200, -69.435
1366.4400, -69.408
1366.4600, -69.455
1366.4800, -69.577
1366.5000, -69.602
1366.5200, -69.525
1366.5400, -69.574
1366.5600, -69.659
1366.5800, -69.700
1366.6000, -69.685
1366.6200, -69.691
1366.6400, -69.650
1366.6600, -69.772
1366.6800, -69.815
1366.7000, -69.814
1366.7200, -69.903
1366.7400, -69.893
1366.7600, -69.917
1366.7800, -69.880
1366.8000, -70.010
1366.8200, -70.058
1366.8400, -70.097
1366.8600, -70.221
1366.8800, -70.226
1366.9000, -70.417
1366.9200, -70.434
1366.9400, -70.507
1366.9600, -70.524
1366.9800, -70.527
1367.0000, -70.502
1367.0200, -70.537
1367.0400, -70.589
1367.0600, -70.470
1367.0800, -70.585
1367.1000, -70.439
1367.1200, -70.342
1367.1400, -70.370
1367.1600, -70.457
1367.1800, -70.250
1367.2000, -70.263
1367.2200, -70.259
1367.2400, -70.204
1367.2600, -70.259
1367.2800, -70.269
1367.3000, -70.251
1367.3200, -70.318
1367.3400, -70.311
1367.3600, -70.305
1367.3800, -70.375
1367.4000, -70.369
1367.4200, -70.443
1367.4400, -70.449
1367.4600, -70.445
1367.4800, -70.579
1367.5000, -70.586
1367.5200, -70.667
1367.5400, -70.830
1367.5600, -70.868
1367.5800, -70.968
1367.6000, -71.076
1367.6200, -71.234
1367.6400, -71.284
1367.6600, -71.338
1367.6800, -71.586
1367.7000, -71.461
1367.7200, -71.426
1367.7400, -71.364
1367.7600, -71.421
1367.7800, -71.513
1367.8000, -71.481
1367.8200, -71.558
1367.8400, -71.560
1367.8600, -71.649
1367.8800, -71.668
1367.9000, -71.769
1367.9200, -71.877
1367.9400, -71.956
1367.9600, -72.054
1367.9800, -72.120
1368.0000, -72.081
1368.0200, -72.044
1368.0400, -71.935
1368.0600, -71.895
1368.0800, -71.894
1368.1000, -71.684
1368.1200, -71.729
1368.1400, -71.580
1368.1600, -71.517
1368.1800, -71.541
1368.2000, -71.649
1368.2200, -71.632
1368.2400, -71.669
1368.2600, -71.755
1368.2800, -71.730
1368.3000, -71.723
1368.3200, -71.689
1368.3400, -71.706
1368.3600, -71.625
1368.3800, -71.736
1368.4000, -71.864
1368.4200, -71.726
1368.4400, -71.834
1368.4600, -71.889
1368.4800, -71.829
1368.5000, -71.976
1368.5200, -72.034
1368.5400, -72.128
1368.5600, -72.217
1368.5800, -72.368
1368.6000, -72.620
1368.6200, -72.754
1368.6400, -72.925
1368.6600, -73.113
1368.6800, -73.366
1368.7000, -73.408
1368.7200, -73.302
1368.7400, -73.160
1368.7600, -73.142
1368.7800, -73.045
1368.8000, -72.894
1368.8200, -72.857
1368.8400, -72.815
1368.8600, -72.599
1368.8800, -72.544
1368.9000, -72.424
1368.9200, -72.316
1368.9400, -72.342
1368.9600, -72.335
1368.9800, -72.354
1369.0000, -72.365
1369.0200, -72.410
1369.0400, -72.399
1369.0600, -72.356
1369.0800, -72.315
1369.1000, -72.440
1369.1200, -72.373
1369.1400, -72.449
1369.1600, -72.342
1369.1800, -72.492
1369.2000, -72.528
1369.2200, -72.418
1369.2400, -72.440
1369.2600, -72.499
1369.2800, -72.459
1369.3000, -72.466
1369.3200, -72.525
1369.3400, -72.437
1369.3600, -72.464
1369.3800, -72.578
1369.4000, -72.601
1369.4200, -72.496
1369.4400, -72.529
1369.4600, -71.937
1369.4800, -71.823
1369.5000, -71.885
1369.5200, -71.846
1369.5400, -72.147
1369.5600, -72.316
1369.5800, -72.477
1369.6000, -72.528
1369.6200, -72.414
1369.6400, -72.577
1369.6600, -72.600
1369.6800, -72.567
1369.7000, -72.707
1369.7200, -72.640
1369.7400, -72.682
1369.7600, -72.756
1369.7800, -72.692
1369.8000, -72.789
1369.8200, -72.746
1369.8400, -72.804
1369.8600, -72.826
1369.8800, -72.794
1369.9000, -72.975
1369.9200, -73.029
1369.9400, -73.168
1369.9600, -73.203
1369.9800, -73.313
1370.0000, -73.448
1370.0200, -73.585
1370.0400, -73.735
1370.0600, -73.725
1370.0800, -73.687
1370.1000, -73.776
1370.1200, -73.608
1370.1400, -73.446
1370.1600, -73.370
1370.1800, -73.280
1370.2000, -73.404
1370.2200, -73.173
1370.2400, -73.010
1370.2600, -72.891
1370.2800, -72.882
1370.3000, -72.817
1370.3200, -72.718
1370.3400, -72.713
1370.3600, -72.729
1370.3800, -72.650
1370.4000, -72.674
1370.4200, -72.601
1370.4400, -72.652
1370.4600, -72.638
1370.4800, -72.586
1370.5000, -72.495
1370.5200, -72.590
1370.5400, -72.470
1370.5600, -72.494
1370.5800, -72.439
1370.6000, -72.427
1370.6200, -72.504
1370.6400, -72.487
1370.6600, -72.462
1370.6800, -72.434
1370.7000, -72.336
1370.7200, -72.351
1370.7400, -72.319
1370.7600, -72.239
1370.7800, -72.266
1370.8000, -72.332
1370.8200, -72.361
1370.8400, -72.331
1370.8600, -72.316
1370.8800, -72.368
1370.9000, -72.406
1370.9200, -72.480
1370.9400, -72.652
1370.9600, -72.689
1370.9800, -72.867
1371.0000, -72.962
1371.0200, -73.110
1371.0400, -73.170
1371.0600, -73.265
1371.0800, -73.281
1371.1000, -72.994
1371.1200, -72.910
1371.1400, -72.859
1371.1600, -72.664
1371.1800, -72.521
1371.2000, -72.391
1371.2200, -72.165
1371.2400, -72.092
1371.2600, -71.913
1371.2800, -71.809
1371.3000, -71.836
1371.3200, -71.776
1371.3400, -71.857
1371.3600, -71.646
1371.3800, -71.736
1371.4000, -71.708
1371.4200, -71.457
1371.4400, -71.421
1371.4600, -71.332
1371.4800, -71.227
1371.5000, -71.196
1371.5200, -71.072
1371.5400, -71.017
1371.5600, -70.996
1371.5800, -70.983
1371.6000, -70.952
1371.6200, -70.960
1371.6400, -70.782
1371.6600, -70.788
1371.6800, -70.682
1371.7000, -70.758
1371.7200, -70.928
1371.7400, -70.797
1371.7600, -70.688
1371.7800, -70.839
1371.8000, -70.863
1371.8200, -70.758
1371.8400, -70.722
1371.8600, -70.703
1371.8800, -70.670
1371.9000, -70.551
1371.9200, -70.546
1371.9400, -70.604
1371.9600, -70.555
1371.9800, -70.498
1372.0000, -70.479
1372.0200, -70.430
1372.0400, -70.388
1372.0600, -70.416
1372.0800, -70.411
1372.1000, -70.453
1372.1200, -70.477
1372.1400, -70.572
1372.1600, -70.541
1372.1800, -70.606
1372.2000, -70.629
1372.2200, -70.414
1372.2400, -70.339
1372.2600, -70.239
1372.2800, -70.213
1372.3000, -70.080
1372.3200, -70.161
1372.3400, -69.990
1372.3600, -70.001
1372.3800, -69.892
1372.4000, -69.818
1372.4200, -69.742
1372.4400, -69.681
1372.4600, -69.636
1372.4800, -69.618
1372.5000, -69.623
1372.5200, -69.475
1372.5400, -69.491
1372.5600, -69.406
1372.5800, -69.313
1372.6000, -69.287
1372.6200, -69.387
1372.6400, -69.255
1372.6600, -69.365
1372.6800, -69.319
1372.7000, -69.374
1372.7200, -69.383
1372.7400, -69.271
1372.7600, -69.199
1372.7800, -69.124
1372.8000, -69.267
1372.8200, -69.215
1372.8400, -69.192
1372.8600, -69.180
1372.8800, -69.094
1372.9000, -69.142
1372.9200, -69.078
1372.9400, -69.196
1372.9600, -69.075
1372.9800, -69.089
1373.0000, -69.085
1373.0200, -69.139
1373.0400, -68.992
1373.0600, -68.977
1373.0800, -69.031
1373.1000, -68.958
1373.1200, -68.890
1373.1400, -68.972
1373.1600, -68.888
1373.1800, -68.939
1373.2000, -68.950
1373.2200, -68.756
1373.2400, -68.817
1373.2600, -68.729
1373.2800, -68.795
1373.3000, -68.693
1373.3200, -68.685
1373.3400, -68.715
1373.3600, -68.642
1373.3800, -68.628
1373.4000, -68.634
1373.4200, -68.590
1373.4400, -68.686
1373.4600, -68.655
1373.4800, -68.626
1373.5000, -68.685
1373.5200, -68.654
1373.5400, -68.658
1373.5600, -68.531
1373.5800, -68.455
1373.6000, -68.380
1373.6200, -68.358
1373.6400, -68.349
1373.6600, -68.353
1373.6800, -68.202
1373.7000, -68.099
1373.7200, -68.189
1373.7400, -68.065
1373.7600, -68.132
1373.7800, -68.148
1373.8000, -67.986
1373.8200, -68.170
1373.8400, -67.972
1373.8600, -67.922
1373.8800, -67.990
1373.9000, -67.916
1373.9200, -67.935
1373.9400, -67.950
1373.9600, -67.944
1373.9800, -68.003
1374.0000, -67.869
1374.0200, -67.882
1374.0400, -67.899
1374.0600, -67.899
1374.0800, -67.936
1374.1000, -67.989
1374.1200, -67.986
1374.1400, -67.911
1374.1600, -67.951
1374.1800, -67.815
1374.2000, -67.859
1374.2200, -67.778
1374.2400, -67.826
1374.2600, -67.826
1374.2800, -67.700
1374.3000, -67.786
1374.3200, -67.661
1374.3400, -67.620
1374.3600, -67.654
1374.3800, -67.659
1374.4000, -67.657
1374.4200, -67.668
1374.4400, -67.718
1374.4600, -67.643
1374.4800, -67.687
1374.5000, -67.690
1374.5200, -67.659
1374.5400, -67.704
1374.5600, -67.604
1374.5800, -67.659
1374.6000, -67.566
1374.6200, -67.699
1374.6400, -67.566
1374.6600, -67.535
1374.6800, -67.468
1374.7000, -67.492
1374.7200, -67.522
1374.7400, -67.469
1374.7600, -67.375
1374.7800, -67.346
1374.8000, -67.347
1374.8200, -67.216
1374.8400, -67.243
1374.8600, -67.263
1374.8800, -67.242
1374.9000, -67.431
1374.9200, -67.294
1374.9400, -67.399
1374.9600, -67.416
1374.9800, -67.395
1375.0000, -67.558
1375.0200, -67.536
1375.0400, -67.541
1375.0600, -67.513
1375.0800, -67.501
1375.1000, -67.466
1375.1200, -67.489
1375.1400, -67.454
1375.1600, -67.394
1375.1800, -67.278
1375.2000, -67.378
1375.2200, -67.165
1375.2400, -67.198
1375.2600, -67.094
1375.2800, -67.129
1375.3000, -67.121
1375.3200, -67.029
1375.3400, -66.980
1375.3600, -66.965
1375.3800, -66.971
1375.4000, -66.809
1375.4200, -66.903
1375.4400, -66.888
1375.4600, -66.749
1375.4800, -66.649
1375.5000, -66.683
1375.5200, -66.743
1375.5400, -66.628
1375.5600, -66.670
1375.5800, -66.599
1375.6000, -66.644
1375.6200, -66.560
1375.6400, -66.614
1375.6600, -66.496
1375.6800, -66.684
1375.7000, -66.612
1375.7200, -66.602
1375.7400, -66.666
1375.7600, -66.564
1375.7800, -66.488
1375.8000, -66.487
1375.8200, -66.581
1375.8400, -66.554
1375.8600, -66.722
1375.8800, -66.547
1375.9000, -66.600
1375.9200, -66.669
1375.9400, -66.705
1375.9600, -66.751
1375.9800, -66.741
1376.0000, -66.864
1376.0200, -66.817
1376.0400, -66.668
1376.0600, -66.721
1376.0800, -66.807
1376.1000, -66.713
1376.1200, -66.717
1376.1400, -66.777
1376.1600, -66.582
1376.1800, -66.706
1376.2000, -66.665
1376.2200, -66.715
1376.2400, -66.588
1376.2600, -66.690
1376.2800, -66.659
1376.3000, -66.699
1376.3200, -66.582
1376.3400, -66.689
1376.3600, -66.577
1376.3800, -66.594
1376.4000, -66.591
1376.4200, -66.473
1376.4400, -66.519
1376.4600, -66.709
1376.4800, -66.598
1376.5000, -66.605
1376.5200, -66.574
1376.5400, -66.605
1376.5600, -66.487
1376.5800, -66.572
1376.6000, -66.463
1376.6200, -66.465
1376.6400, -66.535
1376.6600, -66.521
1376.6800, -66.531
1376.7000, -66.480
1376.7200, -66.473
1376.7400, -66.463
1376.7600, -66.435
1376.7800, -66.555
1376.8000, -66.543
1376.8200, -66.586
1376.8400, -66.406
1376.8600, -66.582
1376.8800, -66.421
1376.9000, -66.472
1376.9200, -66.579
1376.9400, -66.681
1376.9600, -66.734
1376.9800, -66.737
1377.0000, -66.803
1377.0200, -66.976
1377.0400, -67.035
1377.0600, -67.181
1377.0800, -67.246
1377.1000, -67.129
1377.1200, -67.046
1377.1400, -67.034
1377.1600, -67.003
1377.1800, -67.039
1377.2000, -67.115
1377.2200, -66.973
1377.2400, -66.890
1377.2600, -66.846
1377.2800, -66.845
1377.3000, -66.757
1377.3200, -66.896
1377.3400, -66.848
1377.3600, -66.802
1377.3800, -66.863
1377.4000, -66.808
1377.4200, -66.777
1377.4400, -66.757
1377.4600, -66.799
1377.4800, -66.674
1377.5000, -66.692
1377.5200, -66.746
1377.5400, -66.638
1377.5600, -66.654
1377.5800, -66.662
1377.6000, -66.542
1377.6200, -66.692
1377.6400, -66.706
1377.6600, -66.720
1377.6800, -66.709
1377.7000, -66.602
1377.7200, -66.667
1377.7400, -66.647
1377.7600, -66.661
1377.7800, -66.694
1377.8000, -66.652
1377.8200, -66.636
1377.8400, -66.739
1377.8600, -66.667
1377.8800, -66.731
1377.9000, -66.776
1377.9200, -66.712
1377.9400, -66.809
1377.9600, -66.809
1377.9800, -66.825
1378.0000, -66.768
1378.0200, -66.850
1378.0400, -66.969
1378.0600, -66.973
1378.0800, -66.892
1378.1000, -66.995
1378.1200, -66.839
1378.1400, -67.066
1378.1600, -67.004
1378.1800, -67.040
1378.2000, -66.982
1378.2200, -67.094
1378.2400, -67.042
1378.2600, -67.168
1378.2800, -67.191
1378.3000, -67.129
1378.3200, -67.199
1378.3400, -67.197
1378.3600, -67.201
1378.3800, -67.206
1378.4000, -67.209
1378.4200, -67.253
1378.4400, -67.224
1378.4600, -67.296
1378.4800, -67.355
1378.5000, -67.248
1378.5200, -67.350
1378.5400, -67.439
1378.5600, -67.530
1378.5800, -67.475
1378.6000, -67.703
1378.6200, -67.678
1378.6400, -67.680
1378.6600, -67.811
1378.6800, -67.711
1378.7000, -67.696
1378.7200, -67.717
1378.7400, -67.844
1378.7600, -67.849
1378.7800, -67.941
1378.8000, -67.863
1378.8200, -67.923
1378.8400, -67.920
1378.8600, -67.943
1378.8800, -67.953
1378.9000, -67.991
1378.9200, -67.838
1378.9400, -67.959
1378.9600, -67.931
1378.9800, -68.096
1379.0000, -68.062
1379.0200, -68.008
1379.0400, -68.052
1379.0600, -68.006
1379.0800, -67.895
1379.1000, -67.951
1379.1200, -67.889
1379.1400, -67.976
1379.1600, -67.867
1379.1800, -67.917
1379.2000, -67.793
1379.2200, -67.932
1379.2400, -68.028
1379.2600, -67.852
1379.2800, -67.968
1379.3000, -67.988
1379.3200, -68.112
1379.3400, -68.078
1379.3600, -67.988
1379.3800, -68.128
1379.4000, -68.166
1379.4200, -68.097
1379.4400, -68.148
1379.4600, -68.232
1379.4800, -68.239
1379.5000, -68.206
1379.5200, -68.149
1379.5400, -68.272
1379.5600, -68.275
1379.5800, -68.215
1379.6000, -68.199
1379.6200, -68.333
1379.6400, -68.228
1379.6600, -68.234
1379.6800, -68.234
1379.7000, -68.251
1379.7200, -68.264
1379.7400, -68.225
1379.7600, -68.328
1379.7800, -68.295
1379.8000, -68.361
1379.8200, -68.366
1379.8400, -68.352
1379.8600, -68.428
1379.8800, -68.430
1379.9000, -68.430
1379.9200, -68.471
1379.9400, -68.423
1379.9600, -68.404
1379.9800, -68.472
1380.0000, -68.543
1380.0200, -68.541
1380.0400, -68.572
1380.0600, -68.574
1380.0800, -68.667
1380.1000, -68.655
1380.1200, -68.671
1380.1400, -68.638
1380.1600, -68.839
1380.1800, -68.933
1380.2000, -68.887
1380.2200, -68.987
1380.2400, -68.978
1380.2600, -69.077
1380.2800, -69.058
1380.3000, -69.061
1380.3200, -69.044
1380.3400, -69.091
1380.3600, -69.036
1380.3800, -69.103
1380.4000, -69.143
1380.4200, -69.080
1380.4400, -69.155
1380.4600, -69.101
1380.4800, -69.119
1380.5000, -69.276
1380.5200, -69.286
1380.5400, -69.343
1380.5600, -69.510
1380.5800, -69.581
1380.6000, -69.645
1380.6200, -69.810
1380.6400, -69.969
1380.6600, -70.318
1380.6800, -70.540
1380.7000, -70.865
1380.7200, -70.899
1380.7400, -71.028
1380.7600, -70.891
1380.7800, -71.057
1380.8000, -71.001
1380.8200, -71.182
1380.8400, -71.390
1380.8600, -71.179
1380.8800, -70.991
1380.9000, -70.703
1380.9200, -70.316
1380.9400, -70.183
1380.9600, -70.236
1380.9800, -70.183
1381.0000, -70.042
1381.0200, -69.916
1381.0400, -69.940
1381.0600, -69.756
1381.0800, -69.860
1381.1000, -69.831
1381.1200, -69.947
1381.1400, -69.954
1381.1600, -70.073
1381.1800, -70.162
1381.2000, -70.409
1381.2200, -70.462
1381.2400, -70.507
1381.2600, -70.327
1381.2800, -70.311
1381.3000, -70.404
1381.3200, -70.271
1381.3400, -70.276
1381.3600, -70.386
1381.3800, -70.454
1381.4000, -70.232
1381.4200, -70.266
1381.4400, -70.343
1381.4600, -70.322
1381.4800, -70.372
1381.5000, -70.334
1381.5200, -70.234
1381.5400, -70.296
1381.5600, -70.462
1381.5800, -70.328
1381.6000, -70.492
1381.6200, -70.540
1381.6400, -70.589
1381.6600, -70.486
1381.6800, -70.618
1381.7000, -70.632
1381.7200, -70.679
1381.7400, -70.701
1381.7600, -70.621
1381.7800, -70.745
1381.8000, -70.729
1381.8200, -70.759
1381.8400, -70.875
1381.8600, -70.843
1381.8800, -71.031
1381.9000, -71.029
1381.9200, -70.977
1381.9400, -70.962
1381.9600, -71.097
1381.9800, -71.155
1382.0000, -71.068
1382.0200, -71.051
1382.0400, -71.085
1382.0600, -71.158
1382.0800, -71.085
1382.1000, -71.197
1382.1200, -71.130
1382.1400, -71.160
1382.1600, -71.206
1382.1800, -71.088
1382.2000, -71.213
1382.2200, -71.176
1382.2400, -71.257
1382.2600, -71.251
1382.2800, -71.250
1382.3000, -71.263
1382.3200, -71.346
1382.3400, -71.281
1382.3600, -71.331
1382.3800, -71.464
1382.4000, -71.484
1382.4200, -71.499
1382.4400, -71.592
1382.4600, -71.700
1382.4800, -71.758
1382.5000, -71.875
1382.5200, -72.041
1382.5400, -72.143
1382.5600, -72.321
1382.5800, -72.402
1382.6000, -72.298
1382.6200, -72.384
1382.6400, -72.306
1382.6600, -72.427
1382.6800, -72.659
1382.7000, -72.834
1382.7200, -72.995
1382.7400, -72.930
1382.7600, -73.008
1382.7800, -73.032
1382.8000, -73.124
1382.8200, -73.253
1382.8400, -73.262
1382.8600, -73.147
1382.8800, -72.891
1382.9000, -72.792
1382.9200, -72.684
1382.9400, -72.773
1382.9600, -72.708
1382.9800, -72.392
1383.0000, -72.373
1383.0200, -72.340
1383.0400, -72.284
1383.0600, -72.206
1383.0800, -72.073
1383.1000, -71.937
1383.1200, -71.858
1383.1400, -71.841
1383.1600, -71.865
1383.1800, -71.788
1383.2000, -71.857
1383.2200, -71.693
1383.2400, -71.660
1383.2600, -71.691
1383.2800, -71.408
1383.3000, -71.310
1383.3200, -71.347
1383.3400, -71.303
1383.3600, -71.279
1383.3800, -71.322
1383.4000, -71.325
1383.4200, -71.155
1383.4400, -71.296
1383.4600, -71.293
1383.4800, -71.206
1383.5000, -71.319
1383.5200, -71.284
1383.5400, -71.303
1383.5600, -71.222
1383.5800, -71.337
1383.6000, -71.367
1383.6200, -71.341
1383.6400, -71.250
1383.6600, -71.312
1383.6800, -71.079
1383.7000, -71.126
1383.7200, -71.237
1383.7400, -71.187
1383.7600, -71.008
1383.7800, -71.008
1383.8000, -70.915
1383.8200, -70.913
1383.8400, -71.000
1383.8600, -70.955
1383.8800, -71.063
1383.9000, -71.099
1383.9200, -71.095
1383.9400, -71.197
1383.9600, -71.241
1383.9800, -71.159
1384.0000, -71.105
1384.0200, -70.931
1384.0400, -70.753
1384.0600, -70.720
1384.0800, -70.597
1384.1000, -70.525
1384.1200, -70.352
1384.1400, -70.446
1384.1600, -70.137
1384.1800, -70.065
1384.2000, -70.092
1384.2200, -69.907
1384.2400, -69.904
1384.2600, -69.970
1384.2800, -69.938
1384.3000, -69.845
1384.3200, -69.842
1384.3400, -69.872
1384.3600, -69.718
1384.3800, -69.740
1384.4000, -69.996
1384.4200, -69.679
1384.4400, -69.673
1384.4600, -69.768
1384.4800, -69.714
1384.5000, -69.735
1384.5200, -69.650
1384.5400, -69.791
1384.5600, -69.616
1384.5800, -69.748
1384.6000, -69.572
1384.6200, -69.650
1384.6400, -69.614
1384.6600, -69.527
1384.6800, -69.457
1384.7000, -69.529
1384.7200, -69.299
1384.7400, -69.382
1384.7600, -69.327
1384.7800, -69.348
1384.8000, -69.179
1384.8200, -69.320
1384.8400, -69.228
1384.8600, -69.520
1384.8800, -69.699
1384.9000, -69.763
1384.9200, -69.661
1384.9400, -69.486
1384.9600, -69.332
1384.9800, -69.317
1385.0000, -69.301
1385.0200, -69.280
1385.0400, -69.332
1385.0600, -69.320
1385.0800, -69.352
1385.1000, -69.336
1385.1200, -69.310
1385.1400, -69.443
1385.1600, -69.432
1385.1800, -69.413
1385.2000, -69.494
1385.2200, -69.410
1385.2400, -69.302
1385.2600, -69.117
1385.2800, -69.086
1385.3000, -68.980
1385.3200, -68.968
1385.3400, -68.921
1385.3600, -68.764
1385.3800, -68.617
1385.4000, -68.468
1385.4200, -68.618
1385.4400, -68.509
1385.4600, -68.537
1385.4800, -68.479
1385.5000, -68.389
1385.5200, -68.332
1385.5400, -68.429
1385.5600, -68.333
1385.5800, -68.476
1385.6000, -68.348
1385.6200, -68.379
1385.6400, -68.189
1385.6600, -68.194
1385.6800, -68.046
1385.7000, -68.016
1385.7200, -68.080
1385.7400, -68.094
1385.7600, -68.171
1385.7800, -68.140
1385.8000, -68.094
1385.8200, -68.099
1385.8400, -68.120
1385.8600, -68.078
1385.8800, -68.172
1385.9000, -68.070
1385.9200, -68.126
1385.9400, -68.134
1385.9600, -68.254
1385.9800, -68.260
1386.0000, -68.257
1386.0200, -68.114
1386.0400, -68.189
1386.0600, -68.081
1386.0800, -68.140
1386.1000, -68.066
1386.1200, -68.073
1386.1400, -68.054
1386.1600, -68.011
1386.1800, -67.968
1386.2000, -67.840
1386.2200, -67.817
1386.2400, -67.875
1386.2600, -67.851
1386.2800, -67.680
1386.3000, -67.800
1386.3200, -67.749
1386.3400, -67.670
1386.3600, -67.832
1386.3800, -67.852
1386.4000, -67.759
1386.4200, -67.801
1386.4400, -67.759
1386.4600, -67.853
1386.4800, -67.944
1386.5000, -67.946
1386.5200, -67.886
1386.5400, -67.783
1386.5600, -67.816
1386.5800, -67.876
1386.6000, -67.794
1386.6200, -67.663
1386.6400, -67.733
1386.6600, -67.560
1386.6800, -67.448
1386.7000, -67.550
1386.7200, -67.498
1386.7400, -67.350
1386.7600, -67.581
1386.7800, -67.528
1386.8000, -67.501
1386.8200, -67.464
1386.8400, -67.475
1386.8600, -67.493
1386.8800, -67.419
1386.9000, -67.404
1386.9200, -67.375
1386.9400, -67.292
1386.9600, -67.208
1386.9800, -67.215
1387.0000, -67.193
1387.0200, -67.214
1387.0400, -67.180
1387.0600, -67.175
1387.0800, -67.106
1387.1000, -67.141
1387.1200, -67.008
1387.1400, -67.156
1387.1600, -66.990
1387.1800, -67.144
1387.2000, -67.075
1387.2200, -67.009
1387.2400, -66.980
1387.2600, -67.020
1387.2800, -66.890
1387.3000, -66.935
1387.3200, -66.845
1387.3400, -66.759
1387.3600, -66.813
1387.3800, -66.787
1387.4000, -66.920
1387.4200, -66.869
1387.4400, -66.794
1387.4600, -66.774
1387.4800, -66.801
1387.5000, -66.970
1387.5200, -66.793
1387.5400, -66.820
1387.5600, -66.787
1387.5800, -66.812
1387.6000, -66.907
1387.6200, -67.024
1387.6400, -66.843
1387.6600, -66.870
1387.6800, -66.782
1387.7000, -66.912
1387.7200, -66.831
1387.7400, -66.788
1387.7600, -66.838
1387.7800, -66.951
1387.8000, -66.957
1387.8200, -66.947
1387.8400, -66.922
1387.8600, -67.031
1387.8800, -67.202
1387.9000, -67.217
1387.9200, -67.436
1387.9400, -67.506
1387.9600, -67.556
1387.9800, -67.613
1388.0000, -67.493
1388.0200, -67.341
1388.0400, -67.296
1388.0600, -67.239
1388.0800, -67.279
1388.1000, -67.150
1388.1200, -67.159
1388.1400, -67.063
1388.1600, -67.109
1388.1800, -66.923
1388.2000, -66.866
1388.2200, -66.868
1388.2400, -66.903
1388.2600, -66.971
1388.2800, -66.949
1388.3000, -66.868
1388.3200, -66.967
1388.3400, -66.989
1388.3600, -66.976
1388.3800, -67.076
1388.4000, -67.084
1388.4200, -67.035
1388.4400, -66.988
1388.4600, -67.008
1388.4800, -66.846
1388.5000, -66.883
1388.5200, -66.833
1388.5400, -66.706
1388.5600, -66.834
1388.5800, -66.609
1388.6000, -66.567
1388.6200, -66.447
1388.6400, -66.412
1388.6600, -66.414
1388.6800, -66.424
1388.7000, -66.381
1388.7200, -66.339
1388.7400, -66.271
1388.7600, -66.302
1388.7800, -66.209
1388.8000, -66.349
1388.8200, -66.116
1388.8400, -66.204
1388.8600, -66.192
1388.8800, -66.066
1388.9000, -66.175
1388.9200, -66.361
1388.9400, -66.148
1388.9600, -66.260
1388.9800, -66.171
1389.0000, -66.061
1389.0200, -66.186
1389.0400, -66.233
1389.0600, -66.158
1389.0800, -66.296
1389.1000, -66.225
1389.1200, -66.287
1389.1400, -66.130
1389.1600, -66.165
1389.1800, -66.121
1389.2000, -66.042
1389.2200, -66.152
1389.2400, -66.156
1389.2600, -66.033
1389.2800, -65.962
1389.3000, -66.000
1389.3200, -66.065
1389.3400, -65.994
1389.3600, -65.924
1389.3800, -65.926
1389.4000, -65.897
1389.4200, -65.911
1389.4400, -65.943
1389.4600, -66.022
1389.4800, -65.900
1389.5000, -65.959
1389.5200, -65.833
1389.5400, -66.030
1389.5600, -65.894
1389.5800, -65.942
1389.6000, -65.943
1389.6200, -65.965
1389.6400, -65.838
1389.6600, -65.936
1389.6800, -65.976
1389.7000, -65.946
1389.7200, -66.008
1389.7400, -65.944
1389.7600, -65.854
1389.7800, -65.997
1389.8000, -66.046
1389.8200, -65.974
1389.8400, -66.033
1389.8600, -66.060
1389.8800, -66.197
1389.9000, -66.163
1389.9200, -66.163
1389.9400, -66.222
1389.9600, -66.321
1389.9800, -66.378
1390.0000, -66.336
1390.0200, -66.376
1390.0400, -66.214
1390.0600, -66.291
1390.0800, -66.262
1390.1000, -66.298
1390.1200, -66.210
1390.1400, -66.196
1390.1600, -66.115
1390.1800, -66.119
1390.2000, -65.989
1390.2200, -66.007
1390.2400, -66.069
1390.2600, -66.095
1390.2800, -65.882
1390.3000, -66.064
1390.3200, -66.022
1390.3400, -65.993
1390.3600, -66.035
1390.3800, -66.090
1390.4000, -66.061
1390.4200, -65.988
1390.4400, -65.970
1390.4600, -65.984
1390.4800, -65.951
1390.5000, -66.027
1390.5200, -65.991
1390.5400, -65.982
1390.5600, -65.925
1390.5800, -66.049
1390.6000, -65.987
1390.6200, -66.003
1390.6400, -66.044
1390.6600, -66.042
1390.6800, -66.008
1390.7000, -66.089
1390.7200, -66.088
1390.7400, -66.160
1390.7600, -66.086
1390.7800, -66.188
1390.8000, -66.260
1390.8200, -66.199
1390.8400, -66.165
1390.8600, -66.323
1390.8800, -66.284
1390.9000, -66.255
1390.9200, -66.320
1390.9400, -66.322
1390.9600, -66.254
1390.9800, -66.174
1391.0000, -66.283
1391.0200, -66.377
1391.0400, -66.436
1391.0600, -66.290
1391.0800, -66.329
1391.1000, -66.273
1391.1200, -66.231
1391.1400, -66.317
1391.1600, -66.380
1391.1800, -66.240
1391.2000, -66.354
1391.2200, -66.334
1391.2400, -66.393
1391.2600, -66.221
1391.2800, -66.415
1391.3000, -66.268
1391.3200, -66.283
1391.3400, -66.369
1391.3600, -66.372
1391.3800, -66.210
1391.4000, -66.348
1391.4200, -66.287
1391.4400, -66.328
1391.4600, -66.361
1391.4800, -66.450
1391.5000, -66.354
1391.5200, -66.325
1391.5400, -66.408
1391.5600, -66.500
1391.5800, -66.488
1391.6000, -66.372
1391.6200, -66.475
1391.6400, -66.618
1391.6600, -66.552
1391.6800, -66.525
1391.7000, -66.637
1391.7200, -66.561
1391.7400, -66.675
1391.7600, -66.670
1391.7800, -66.841
1391.8000, -66.705
1391.8200, -66.696
1391.8400, -66.786
1391.8600, -66.715
1391.8800, -66.752
1391.9000, -66.775
1391.9200, -66.769
1391.9400, -66.757
1391.9600, -66.810
1391.9800, -66.840
1392.0000, -66.801
1392.0200, -66.799
1392.0400, -66.882
1392.0600, -66.931
1392.0800, -66.885
1392.1000, -66.965
1392.1200, -66.964
1392.1400, -67.033
1392.1600, -67.061
1392.1800, -67.191
1392.2000, -67.157
1392.2200, -67.238
1392.2400, -67.218
1392.2600, -67.413
1392.2800, -67.555
1392.3000, -67.435
1392.3200, -67.568
1392.3400, -67.422
1392.3600, -67.475
1392.3800, -67.493
1392.4000, -67.543
1392.4200, -67.553
1392.4400, -67.636
1392.4600, -67.657
1392.4800, -67.647
1392.5000, -67.675
1392.5200, -67.895
1392.5400, -68.023
1392.5600, -68.088
1392.5800, -68.328
1392.6000, -68.648
1392.6200, -68.628
1392.6400, -68.695
1392.6600, -68.451
1392.6800, -68.409
1392.7000, -68.321
1392.7200, -68.309
1392.7400, -68.242
1392.7600, -68.250
1392.7800, -68.052
1392.8000, -67.991
1392.8200, -67.840
1392.8400, -67.805
1392.8600, -67.731
1392.8800, -67.795
1392.9000, -67.958
1392.9200, -67.824
1392.9400, -67.821
1392.9600, -67.823
1392.9800, -67.861
1393.0000, -67.834
1393.0200, -67.823
1393.0400, -67.922
1393.0600, -67.956
1393.0800, -67.993
1393.1000, -67.974
1393.1200, -68.048
1393.1400, -68.084
1393.1600, -68.040
1393.1800, -68.147
1393.2000, -68.188
1393.2200, -68.138
1393.2400, -68.099
1393.2600, -68.276
1393.2800, -68.114
1393.3000, -68.225
1393.3200, -68.248
1393.3400, -68.372
1393.3600, -68.315
1393.3800, -68.336
1393.4000, -68.369
1393.4200, -68.372
1393.4400, -68.442
1393.4600, -68.455
1393.4800, -68.477
1393.5000, -68.499
1393.5200, -68.492
1393.5400, -68.581
1393.5600, -68.545
1393.5800, -68.557
1393.6000, -68.671
1393.6200, -68.586
1393.6400, -68.670
1393.6600, -68.585
1393.6800, -68.669
1393.7000, -68.753
1393.7200, -68.758
1393.7400, -68.828
1393.7600, -68.868
1393.7800, -68.796
1393.8000, -68.842
1393.8200, -68.946
1393.8400, -68.954
1393.8600, -68.869
1393.8800, -68.944
1393.9000, -69.092
1393.9200, -69.156
1393.9400, -69.107
1393.9600, -69.178
1393.9800, -69.233
1394.0000, -69.273
1394.0200, -69.334
1394.0400, -69.392
1394.0600, -69.361
1394.0800, -69.345
1394.1000, -69.449
1394.1200, -69.305
1394.1400, -69.447
1394.1600, -69.514
1394.1800, -69.566
1394.2000, -69.528
1394.2200, -69.563
1394.2400, -69.619
1394.2600, -69.619
1394.2800, -69.743
1394.3000, -69.657
1394.3200, -69.788
1394.3400, -69.716
1394.3600, -69.668
1394.3800, -69.728
1394.4000, -69.777
1394.4200, -69.828
1394.4400, -69.844
1394.4600, -69.823
1394.4800, -69.807
1394.5000, -69.821
1394.5200, -69.835
1394.5400, -69.919
1394.5600, -69.972
1394.5800, -70.037
1394.6000, -69.992
1394.6200, -69.971
1394.6400, -70.283
1394.6600, -70.052
1394.6800, -70.154
1394.7000, -70.287
1394.7200, -70.379
1394.7400, -70.355
1394.7600, -70.422
1394.7800, -70.423
1394.8000, -70.437
1394.8200, -70.353
1394.8400, -70.283
1394.8600, -70.384
1394.8800, -70.427
1394.9000, -70.392
1394.9200, -70.432
1394.9400, -70.648
1394.9600, -70.619
1394.9800, -70.722
1395.0000, -70.959
1395.0200, -71.164
1395.0400, -71.408
1395.0600, -71.378
1395.0800, -71.693
1395.1000, -71.583
1395.1200, -71.737
1395.1400, -70.546
1395.1600, -70.173
1395.1800, -70.301
1395.2000, -70.451
1395.2200, -70.884
1395.2400, -71.031
1395.2600, -71.029
1395.2800, -70.894
1395.3000, -70.835
1395.3200, -70.733
1395.3400, -70.822
1395.3600, -70.828
1395.3800, -70.869
1395.4000, -70.927
1395.4200, -70.917
1395.4400, -71.013
1395.4600, -71.006
1395.4800, -71.142
1395.5000, -71.198
1395.5200, -71.260
1395.5400, -71.407
1395.5600, -71.442
1395.5800, -71.615
1395.6000, -71.621
1395.6200, -71.617
1395.6400, -71.530
1395.6600, -71.402
1395.6800, -71.360
1395.7000, -71.412
1395.7200, -71.366
1395.7400, -71.338
1395.7600, -71.247
1395.7800, -71.210
1395.8000, -71.055
1395.8200, -71.106
1395.8400, -71.126
1395.8600, -71.118
1395.8800, -71.229
1395.9000, -71.157
1395.9200, -71.015
1395.9400, -70.984
1395.9600, -71.017
1395.9800, -71.074
1396.0000, -71.055
1396.0200, -71.067
1396.0400, -71.035
1396.0600, -70.963
1396.0800, -71.005
1396.1000, -71.044
1396.1200, -70.996
1396.1400, -71.003
1396.1600, -71.045
1396.1800, -70.963
1396.2000, -70.942
1396.2200, -70.960
1396.2400, -71.044
1396.2600, -71.056
1396.2800, -71.061
1396.3000, -71.130
1396.3200, -71.080
1396.3400, -71.216
1396.3600, -71.366
1396.3800, -71.535
1396.4000, -71.581
1396.4200, -71.654
1396.4400, -71.906
1396.4600, -71.854
1396.4800, -71.800
1396.5000, -71.832
1396.5200, -71.489
1396.5400, -71.517
1396.5600, -71.493
1396.5800, -71.459
1396.6000, -71.493
1396.6200, -71.402
1396.6400, -71.170
1396.6600, -71.261
1396.6800, -71.239
1396.7000, -71.140
1396.7200, -71.011
1396.7400, -70.849
1396.7600, -70.782
1396.7800, -70.746
1396.8000, -70.629
1396.8200, -70.620
1396.8400, -70.634
1396.8600, -70.409
1396.8800, -70.431
1396.9000, -70.299
1396.9200, -70.250
1396.9400, -70.170
1396.9600, -70.102
1396.9800, -70.218
1397.0000, -70.067
1397.0200, -70.060
1397.0400, -69.955
1397.0600, -69.923
1397.0800, -70.065
1397.1000, -69.885
1397.1200, -69.956
1397.1400, -69.980
1397.1600, -69.906
1397.1800, -69.851
1397.2000, -69.855
1397.2200, -69.765
1397.2400, -69.901
1397.2600, -69.743
1397.2800, -69.914
1397.3000, -69.727
1397.3200, -69.751
1397.3400, -69.753
1397.3600, -69.815
1397.3800, -69.739
1397.4000, -69.605
1397.4200, -69.619
1397.4400, -69.601
1397.4600, -69.509
1397.4800, -69.532
1397.5000, -69.408
1397.5200, -69.341
1397.5400, -69.204
1397.5600, -69.272
1397.5800, -69.244
1397.6000, -69.171
1397.6200, -69.152
1397.6400, -69.102
1397.6600, -69.142
1397.6800, -69.105
1397.7000, -69.042
1397.7200, -69.030
1397.7400, -69.024
1397.7600, -69.050
1397.7800, -69.043
1397.8000, -68.869
1397.8200, -68.740
1397.8400, -68.816
1397.8600, -68.826
1397.8800, -68.777
1397.9000, -68.602
1397.9200, -68.789
1397.9400, -68.628
1397.9600, -68.682
1397.9800, -68.575
1398.0000, -68.557
1398.0200, -68.520
1398.0400, -68.569
1398.0600, -68.539
1398.0800, -68.509
1398.1000, -68.475
1398.1200, -68.413
1398.1400, -68.407
1398.1600, -68.404
1398.1800, -68.476
1398.2000, -68.485
1398.2200, -68.390
1398.2400, -68.350
1398.2600, -68.351
1398.2800, -68.338
1398.3000, -68.324
1398.3200, -68.306
1398.3400, -68.327
1398.3600, -68.277
1398.3800, -68.081
1398.4000, -68.230
1398.4200, -68.249
1398.4400, -68.203
1398.4600, -68.133
1398.4800, -68.191
1398.5000, -68.114
1398.5200, -68.066
1398.5400, -68.189
1398.5600, -68.211
1398.5800, -68.115
1398.6000, -68.081
1398.6200, -68.064
1398.6400, -68.046
1398.6600, -68.050
1398.6800, -67.961
1398.7000, -68.064
1398.7200, -68.030
1398.7400, -67.934
1398.7600, -67.911
1398.7800, -67.855
1398.8000, -67.853
1398.8200, -67.785
1398.8400, -67.831
1398.8600, -67.860
1398.8800, -67.792
1398.9000, -67.700
1398.9200, -67.711
1398.9400, -67.654
1398.9600, -67.698
1398.9800, -67.620
1399.0000, -67.631
1399.0200, -67.665
1399.0400, -67.579
1399.0600, -67.564
1399.0800, -67.538
1399.1000, -67.461
1399.1200, -67.554
1399.1400, -67.469
1399.1600, -67.493
1399.1800, -67.411
1399.2000, -67.466
1399.2200, -67.474
1399.2400, -67.425
1399.2600, -67.424
1399.2800, -67.356
1399.3000, -67.271
1399.3200, -67.265
1399.3400, -67.293
1399.3600, -67.249
1399.3800, -67.246
1399.4000, -67.329
1399.4200, -67.236
1399.4400, -67.364
1399.4600, -67.314
1399.4800, -67.363
1399.5000, -67.370
1399.5200, -67.496
1399.5400, -67.415
1399.5600, -67.632
1399.5800, -67.777
1399.6000, -67.824
1399.6200, -67.898
1399.6400, -67.839
1399.6600, -67.839
1399.6800, -67.683
1399.7000, -67.588
1399.7200, -67.365
1399.7400, -67.393
1399.7600, -67.302
1399.7800, -67.263
1399.8000, -67.133
1399.8200, -66.986
1399.8400, -66.967
1399.8600, -66.893
1399.8800, -66.778
1399.9000, -66.806
1399.9200, -66.760
1399.9400, -66.690
1399.9600, -66.806
1399.9800, -66.814
1400.0000, -66.816
