70BCSV 	
// AQ6370B OPTICAL SPECTRUM ANALYZER //                 
25
"CTRWL",1550.000000
"SPAN", 100.000000
"START WL",1500.000000
"STOP WL",1600.000000
"WLFREQ", 0
"REFL",-58.5
"LSCL", 5.0
"RESLN",0.500
"AVG",   1
"SMPLAUTO",      0
"SMPL",       2500
"SMPLINTVL",0.0400
"HIGH1"
"MEAS"
"LSUNT",0
"NMSKH","OFF"
"RESCOR",0
"RESPARM", 9740
"FREQPARM", 9740






"[TRACE DATA]"
1500.0000,-210.000
1500.0400,-210.000
1500.0800,-210.000
1500.1200,-210.000
1500.1601,-210.000
1500.2001,-210.000
1500.2401,-210.000
1500.2801,-210.000
1500.3201,-210.000
1500.3601,-210.000
1500.4002,-210.000
1500.4402,-210.000
1500.4802,-210.000
1500.5202,-210.000
1500.5602,-210.000
1500.6002,-210.000
1500.6403,-210.000
1500.6803,-210.000
1500.7203,-210.000
1500.7603,-210.000
1500.8003,-210.000
1500.8403,-210.000
1500.8804,-210.000
1500.9204,-210.000
1500.9604,-210.000
1501.0004,-210.000
1501.0404,-210.000
1501.0804,-210.000
1501.1204,-210.000
1501.1605,-210.000
1501.2005,-210.000
1501.2405,-210.000
1501.2805,-210.000
1501.3205,-210.000
1501.3605,-210.000
1501.4006,-210.000
1501.4406,-210.000
1501.4806,-210.000
1501.5206,-210.000
1501.5606,-210.000
1501.6006,-101.949
1501.6407,-210.000
1501.6807,-210.000
1501.7207,-210.000
1501.7607,-210.000
1501.8007,-210.000
1501.8407,-210.000
1501.8808,-210.000
1501.9208,-210.000
1501.9608,-210.000
1502.0008,-210.000
1502.0408,-210.000
1502.0808,-210.000
1502.1208,-210.000
1502.1609,-210.000
1502.2009,-210.000
1502.2409,-210.000
1502.2809,-210.000
1502.3209,-210.000
1502.3609, -92.282
1502.4010,-210.000
1502.4410,-210.000
1502.4810,-210.000
1502.5210,-210.000
1502.5610,-210.000
1502.6010,-210.000
1502.6411,-210.000
1502.6811,-210.000
1502.7211,-210.000
1502.7611,-210.000
1502.8011,-210.000
1502.8411,-210.000
1502.8812,-210.000
1502.9212,-210.000
1502.9612,-210.000
1503.0012,-210.000
1503.0412,-210.000
1503.0812,-210.000
1503.1212,-210.000
1503.1613,-210.000
1503.2013,-210.000
1503.2413,-210.000
1503.2813,-210.000
1503.3213,-210.000
1503.3613,-210.000
1503.4014,-210.000
1503.4414,-210.000
1503.4814,-210.000
1503.5214,-210.000
1503.5614,-210.000
1503.6014,-210.000
1503.6415,-210.000
1503.6815,-210.000
1503.7215,-210.000
1503.7615,-210.000
1503.8015,-210.000
1503.8415,-210.000
1503.8816,-210.000
1503.9216,-210.000
1503.9616,-210.000
1504.0016,-210.000
1504.0416,-210.000
1504.0816,-210.000
1504.1216,-210.000
1504.1617,-210.000
1504.2017,-210.000
1504.2417,-210.000
1504.2817,-210.000
1504.3217,-210.000
1504.3617,-210.000
1504.4018,-210.000
1504.4418,-100.785
1504.4818,-210.000
1504.5218,-210.000
1504.5618,-210.000
1504.6018,-210.000
1504.6419,-210.000
1504.6819,-210.000
1504.7219,-210.000
1504.7619,-210.000
1504.8019,-210.000
1504.8419,-210.000
1504.8820,-210.000
1504.9220,-210.000
1504.9620,-210.000
1505.0020,-210.000
1505.0420,-210.000
1505.0820,-210.000
1505.1220,-210.000
1505.1621,-210.000
1505.2021,-210.000
1505.2421,-210.000
1505.2821,-210.000
1505.3221,-210.000
1505.3621,-210.000
1505.4022,-210.000
1505.4422,-210.000
1505.4822,-210.000
1505.5222,-210.000
1505.5622,-210.000
1505.6022,-210.000
1505.6423,-210.000
1505.6823,-210.000
1505.7223,-210.000
1505.7623,-210.000
1505.8023,-210.000
1505.8423,-210.000
1505.8824,-210.000
1505.9224,-210.000
1505.9624,-210.000
1506.0024,-210.000
1506.0424,-210.000
1506.0824,-210.000
1506.1224,-210.000
1506.1625,-210.000
1506.2025, -85.646
1506.2425,-210.000
1506.2825,-210.000
1506.3225,-210.000
1506.3625,-210.000
1506.4026,-210.000
1506.4426,-210.000
1506.4826,-210.000
1506.5226,-210.000
1506.5626,-210.000
1506.6026,-210.000
1506.6427,-210.000
1506.6827,-210.000
1506.7227,-210.000
1506.7627,-210.000
1506.8027,-210.000
1506.8427,-210.000
1506.8828,-210.000
1506.9228,-210.000
1506.9628,-210.000
1507.0028,-210.000
1507.0428,-210.000
1507.0828,-210.000
1507.1228,-210.000
1507.1629,-210.000
1507.2029,-210.000
1507.2429,-210.000
1507.2829,-210.000
1507.3229,-210.000
1507.3629,-210.000
1507.4030,-210.000
1507.4430,-210.000
1507.4830,-210.000
1507.5230,-210.000
1507.5630,-210.000
1507.6030,-210.000
1507.6431,-210.000
1507.6831,-210.000
1507.7231,-210.000
1507.7631,-210.000
1507.8031,-210.000
1507.8431,-210.000
1507.8832,-210.000
1507.9232,-210.000
1507.9632,-210.000
1508.0032,-210.000
1508.0432, -87.776
1508.0832,-210.000
1508.1232,-210.000
1508.1633,-210.000
1508.2033,-210.000
1508.2433,-210.000
1508.2833,-210.000
1508.3233,-210.000
1508.3633,-210.000
1508.4034,-210.000
1508.4434,-210.000
1508.4834,-210.000
1508.5234,-210.000
1508.5634,-210.000
1508.6034,-210.000
1508.6435,-210.000
1508.6835,-210.000
1508.7235,-210.000
1508.7635,-210.000
1508.8035,-210.000
1508.8435,-210.000
1508.8836,-210.000
1508.9236,-210.000
1508.9636,-210.000
1509.0036,-210.000
1509.0436, -95.912
1509.0836,-210.000
1509.1236,-210.000
1509.1637,-210.000
1509.2037,-210.000
1509.2437,-210.000
1509.2837,-210.000
1509.3237,-210.000
1509.3637,-210.000
1509.4038,-210.000
1509.4438,-210.000
1509.4838,-210.000
1509.5238,-210.000
1509.5638,-210.000
1509.6038,-124.356
1509.6439,-210.000
1509.6839,-210.000
1509.7239,-210.000
1509.7639,-210.000
1509.8039,-210.000
1509.8439,-210.000
1509.8840,-210.000
1509.9240,-210.000
1509.9640,-210.000
1510.0040,-210.000
1510.0440,-210.000
1510.0840,-210.000
1510.1240,-210.000
1510.1641,-210.000
1510.2041,-210.000
1510.2441,-210.000
1510.2841,-210.000
1510.3241,-210.000
1510.3641,-210.000
1510.4042,-210.000
1510.4442,-210.000
1510.4842,-210.000
1510.5242,-210.000
1510.5642,-210.000
1510.6042,-210.000
1510.6443,-210.000
1510.6843,-210.000
1510.7243,-210.000
1510.7643,-210.000
1510.8043,-210.000
1510.8443,-210.000
1510.8844,-210.000
1510.9244,-210.000
1510.9644,-210.000
1511.0044,-210.000
1511.0444,-210.000
1511.0844,-210.000
1511.1244,-210.000
1511.1645,-210.000
1511.2045,-210.000
1511.2445,-210.000
1511.2845, -85.969
1511.3245,-210.000
1511.3645,-210.000
1511.4046,-210.000
1511.4446,-210.000
1511.4846,-210.000
1511.5246,-210.000
1511.5646,-210.000
1511.6046,-210.000
1511.6447,-210.000
1511.6847,-210.000
1511.7247,-210.000
1511.7647,-210.000
1511.8047,-210.000
1511.8447,-210.000
1511.8848,-210.000
1511.9248,-210.000
1511.9648,-210.000
1512.0048,-210.000
1512.0448,-210.000
1512.0848,-210.000
1512.1248,-210.000
1512.1649,-210.000
1512.2049,-210.000
1512.2449,-210.000
1512.2849,-210.000
1512.3249,-210.000
1512.3649,-210.000
1512.4050,-210.000
1512.4450,-210.000
1512.4850,-210.000
1512.5250,-210.000
1512.5650,-210.000
1512.6050,-210.000
1512.6451,-210.000
1512.6851,-210.000
1512.7251,-210.000
1512.7651,-210.000
1512.8051,-210.000
1512.8451,-210.000
1512.8852,-210.000
1512.9252,-210.000
1512.9652,-210.000
1513.0052,-210.000
1513.0452,-210.000
1513.0852,-210.000
1513.1253,-210.000
1513.1653,-210.000
1513.2053,-210.000
1513.2453,-210.000
1513.2853,-210.000
1513.3253,-210.000
1513.3653,-210.000
1513.4054,-210.000
1513.4454,-210.000
1513.4854,-210.000
1513.5254,-210.000
1513.5654,-210.000
1513.6054,-210.000
1513.6455,-210.000
1513.6855,-210.000
1513.7255,-210.000
1513.7655,-210.000
1513.8055,-210.000
1513.8455,-210.000
1513.8856,-210.000
1513.9256,-210.000
1513.9656,-210.000
1514.0056,-210.000
1514.0456,-210.000
1514.0856, -90.973
1514.1257,-210.000
1514.1657,-210.000
1514.2057,-210.000
1514.2457,-210.000
1514.2857,-210.000
1514.3257,-210.000
1514.3657,-210.000
1514.4058,-210.000
1514.4458,-210.000
1514.4858,-210.000
1514.5258, -93.872
1514.5658,-210.000
1514.6058,-210.000
1514.6459,-210.000
1514.6859,-210.000
1514.7259,-210.000
1514.7659,-210.000
1514.8059,-210.000
1514.8459,-210.000
1514.8860,-210.000
1514.9260,-210.000
1514.9660,-210.000
1515.0060,-210.000
1515.0460,-210.000
1515.0860,-210.000
1515.1261,-210.000
1515.1661,-210.000
1515.2061,-210.000
1515.2461,-210.000
1515.2861, -90.832
1515.3261,-210.000
1515.3661,-210.000
1515.4062,-210.000
1515.4462,-210.000
1515.4862,-210.000
1515.5262,-210.000
1515.5662,-210.000
1515.6062,-210.000
1515.6463,-210.000
1515.6863,-210.000
1515.7263,-210.000
1515.7663,-210.000
1515.8063,-210.000
1515.8463,-210.000
1515.8864,-210.000
1515.9264,-210.000
1515.9664,-210.000
1516.0064,-210.000
1516.0464,-210.000
1516.0864,-210.000
1516.1265,-210.000
1516.1665,-210.000
1516.2065,-210.000
1516.2465,-210.000
1516.2865,-210.000
1516.3265,-210.000
1516.3665,-210.000
1516.4066,-210.000
1516.4466,-210.000
1516.4866,-210.000
1516.5266,-210.000
1516.5666,-210.000
1516.6066,-210.000
1516.6467,-210.000
1516.6867,-210.000
1516.7267,-210.000
1516.7667,-210.000
1516.8067,-210.000
1516.8467,-210.000
1516.8868,-210.000
1516.9268, -87.241
1516.9668,-210.000
1517.0068,-210.000
1517.0468,-210.000
1517.0868,-210.000
1517.1269,-210.000
1517.1669,-210.000
1517.2069,-210.000
1517.2469,-210.000
1517.2869,-210.000
1517.3269,-210.000
1517.3669,-210.000
1517.4070,-210.000
1517.4470,-210.000
1517.4870,-210.000
1517.5270,-210.000
1517.5670,-210.000
1517.6070,-210.000
1517.6471,-210.000
1517.6871,-210.000
1517.7271,-210.000
1517.7671,-210.000
1517.8071,-210.000
1517.8471,-210.000
1517.8872,-210.000
1517.9272,-210.000
1517.9672,-210.000
1518.0072,-210.000
1518.0472, -94.971
1518.0872,-210.000
1518.1273,-210.000
1518.1673,-210.000
1518.2073,-210.000
1518.2473,-210.000
1518.2873,-210.000
1518.3273,-210.000
1518.3673,-210.000
1518.4074,-210.000
1518.4474,-210.000
1518.4874,-210.000
1518.5274,-210.000
1518.5674,-210.000
1518.6074,-210.000
1518.6475,-210.000
1518.6875,-210.000
1518.7275,-210.000
1518.7675,-210.000
1518.8075,-210.000
1518.8475, -93.247
1518.8876,-210.000
1518.9276,-210.000
1518.9676,-210.000
1519.0076,-210.000
1519.0476,-210.000
1519.0876,-210.000
1519.1277,-210.000
1519.1677,-210.000
1519.2077,-210.000
1519.2477,-210.000
1519.2877,-210.000
1519.3277,-210.000
1519.3677,-210.000
1519.4078,-210.000
1519.4478,-210.000
1519.4878,-210.000
1519.5278,-210.000
1519.5678, -85.126
1519.6078,-210.000
1519.6479,-210.000
1519.6879,-210.000
1519.7279,-210.000
1519.7679,-210.000
1519.8079,-210.000
1519.8479,-210.000
1519.8880,-210.000
1519.9280,-210.000
1519.9680,-210.000
1520.0080,-210.000
1520.0480,-210.000
1520.0880,-210.000
1520.1281,-210.000
1520.1681,-210.000
1520.2081,-210.000
1520.2481,-210.000
1520.2881,-210.000
1520.3281,-210.000
1520.3681,-210.000
1520.4082,-210.000
1520.4482,-210.000
1520.4882,-210.000
1520.5282,-210.000
1520.5682,-210.000
1520.6082, -89.077
1520.6483,-210.000
1520.6883,-210.000
1520.7283,-210.000
1520.7683,-210.000
1520.8083, -95.453
1520.8483,-210.000
1520.8884,-210.000
1520.9284,-210.000
1520.9684,-210.000
1521.0084,-210.000
1521.0484,-210.000
1521.0884,-210.000
1521.1285,-210.000
1521.1685,-210.000
1521.2085,-210.000
1521.2485,-210.000
1521.2885,-210.000
1521.3285,-210.000
1521.3685,-210.000
1521.4086,-210.000
1521.4486,-210.000
1521.4886,-210.000
1521.5286,-210.000
1521.5686,-210.000
1521.6086,-210.000
1521.6487, -98.059
1521.6887,-210.000
1521.7287,-210.000
1521.7687,-210.000
1521.8087,-210.000
1521.8487,-210.000
1521.8888,-210.000
1521.9288,-210.000
1521.9688,-210.000
1522.0088,-210.000
1522.0488,-210.000
1522.0888,-210.000
1522.1289,-210.000
1522.1689,-210.000
1522.2089,-210.000
1522.2489,-210.000
1522.2889,-210.000
1522.3289,-210.000
1522.3689, -89.239
1522.4090,-210.000
1522.4490,-210.000
1522.4890,-210.000
1522.5290,-210.000
1522.5690,-210.000
1522.6090,-210.000
1522.6491,-107.711
1522.6891,-210.000
1522.7291, -87.940
1522.7691,-210.000
1522.8091,-210.000
1522.8491,-210.000
1522.8892, -85.744
1522.9292,-210.000
1522.9692,-210.000
1523.0092,-210.000
1523.0492, -87.146
1523.0892,-210.000
1523.1293,-210.000
1523.1693,-210.000
1523.2093, -91.456
1523.2493, -95.831
1523.2893,-210.000
1523.3293,-210.000
1523.3693,-210.000
1523.4094,-210.000
1523.4494, -87.854
1523.4894, -89.809
1523.5294, -86.035
1523.5694,-210.000
1523.6094, -87.197
1523.6495, -90.707
1523.6895, -88.240
1523.7295, -90.836
1523.7695,-210.000
1523.8095, -82.275
1523.8495, -90.530
1523.8896, -88.637
1523.9296, -90.073
1523.9696, -97.676
1524.0096,-210.000
1524.0496, -84.892
1524.0896,-210.000
1524.1297, -90.558
1524.1697, -86.548
1524.2097, -87.295
1524.2497,-210.000
1524.2897, -82.930
1524.3297, -86.688
1524.3697,-210.000
1524.4098, -85.616
1524.4498, -84.419
1524.4898,-210.000
1524.5298, -83.662
1524.5698, -84.167
1524.6098,-210.000
1524.6499,-210.000
1524.6899, -83.225
1524.7299,-210.000
1524.7699, -82.651
1524.8099, -86.293
1524.8499, -88.535
1524.8900, -84.067
1524.9300, -86.677
1524.9700, -83.938
1525.0100, -88.773
1525.0500, -89.242
1525.0900, -81.084
1525.1301, -84.785
1525.1701, -80.035
1525.2101, -80.628
1525.2501, -81.497
1525.2901, -80.647
1525.3301, -78.419
1525.3701, -80.771
1525.4102, -78.589
1525.4502, -80.357
1525.4902, -78.688
1525.5302, -77.728
1525.5702, -76.842
1525.6102, -76.080
1525.6503, -77.313
1525.6903, -77.361
1525.7303, -76.160
1525.7703, -75.333
1525.8103, -76.123
1525.8503, -75.302
1525.8904, -75.172
1525.9304, -74.332
1525.9704, -74.991
1526.0104, -74.158
1526.0504, -73.973
1526.0904, -73.501
1526.1305, -74.063
1526.1705, -72.966
1526.2105, -72.434
1526.2505, -72.544
1526.2905, -72.388
1526.3305, -71.938
1526.3705, -71.732
1526.4106, -71.610
1526.4506, -71.486
1526.4906, -71.251
1526.5306, -71.137
1526.5706, -70.993
1526.6106, -70.883
1526.6507, -70.699
1526.6907, -70.625
1526.7307, -70.586
1526.7707, -70.364
1526.8107, -70.185
1526.8507, -70.166
1526.8908, -70.025
1526.9308, -69.823
1526.9708, -69.832
1527.0108, -69.739
1527.0508, -69.503
1527.0908, -69.580
1527.1309, -69.284
1527.1709, -69.225
1527.2109, -69.016
1527.2509, -69.142
1527.2909, -69.118
1527.3309, -68.773
1527.3709, -68.884
1527.4110, -68.686
1527.4510, -68.732
1527.4910, -68.748
1527.5310, -68.678
1527.5710, -68.634
1527.6110, -68.549
1527.6511, -68.563
1527.6911, -68.613
1527.7311, -68.609
1527.7711, -68.502
1527.8111, -68.713
1527.8511, -68.642
1527.8912, -68.659
1527.9312, -68.727
1527.9712, -68.834
1528.0112, -68.931
1528.0512, -68.786
1528.0912, -68.911
1528.1313, -68.946
1528.1713, -69.104
1528.2113, -69.208
1528.2513, -69.269
1528.2913, -69.292
1528.3313, -69.300
1528.3713, -69.274
1528.4114, -69.696
1528.4514, -69.553
1528.4914, -69.876
1528.5314, -70.179
1528.5714, -69.885
1528.6114, -70.186
1528.6515, -70.468
1528.6915, -70.526
1528.7315, -70.790
1528.7715, -70.997
1528.8115, -70.969
1528.8515, -71.282
1528.8916, -71.412
1528.9316, -71.433
1528.9716, -71.188
1529.0116, -71.396
1529.0516, -71.195
1529.0916, -71.109
1529.1317, -70.709
1529.1717, -70.575
1529.2117, -70.200
1529.2517, -70.141
1529.2917, -69.558
1529.3317, -69.295
1529.3717, -68.958
1529.4118, -68.847
1529.4518, -68.412
1529.4918, -67.955
1529.5318, -67.889
1529.5718, -67.647
1529.6118, -67.309
1529.6519, -67.137
1529.6919, -66.948
1529.7319, -66.698
1529.7719, -66.567
1529.8119, -66.337
1529.8519, -66.148
1529.8920, -65.976
1529.9320, -65.723
1529.9720, -65.539
1530.0120, -65.391
1530.0520, -65.211
1530.0920, -64.992
1530.1321, -64.845
1530.1721, -64.693
1530.2121, -64.506
1530.2521, -64.437
1530.2921, -64.274
1530.3321, -64.167
1530.3721, -64.115
1530.4122, -64.026
1530.4522, -63.975
1530.4922, -63.873
1530.5322, -63.839
1530.5722, -63.803
1530.6122, -63.802
1530.6523, -63.740
1530.6923, -63.807
1530.7323, -63.847
1530.7723, -63.926
1530.8123, -63.945
1530.8523, -64.094
1530.8924, -64.244
1530.9324, -64.428
1530.9724, -64.623
1531.0124, -64.822
1531.0524, -65.010
1531.0924, -65.190
1531.1325, -65.543
1531.1725, -65.643
1531.2125, -65.864
1531.2525, -66.117
1531.2925, -66.336
1531.3325, -66.487
1531.3725, -66.679
1531.4126, -66.725
1531.4526, -66.819
1531.4926, -66.841
1531.5326, -66.830
1531.5726, -66.842
1531.6126, -66.717
1531.6527, -66.566
1531.6927, -66.476
1531.7327, -66.245
1531.7727, -66.006
1531.8127, -65.883
1531.8527, -65.668
1531.8928, -65.411
1531.9328, -65.228
1531.9728, -65.094
1532.0128, -64.788
1532.0528, -64.630
1532.0928, -64.423
1532.1329, -64.207
1532.1729, -63.965
1532.2129, -63.800
1532.2529, -63.632
1532.2929, -63.422
1532.3329, -63.237
1532.3729, -63.067
1532.4130, -62.843
1532.4530, -62.687
1532.4930, -62.528
1532.5330, -62.357
1532.5730, -62.203
1532.6130, -62.071
1532.6531, -61.940
1532.6931, -61.770
1532.7331, -61.661
1532.7731, -61.566
1532.8131, -61.434
1532.8531, -61.343
1532.8932, -61.222
1532.9332, -61.195
1532.9732, -61.126
1533.0132, -61.033
1533.0532, -61.005
1533.0932, -60.988
1533.1333, -60.968
1533.1733, -60.979
1533.2133, -61.004
1533.2533, -61.000
1533.2933, -61.087
1533.3333, -61.133
1533.3733, -61.182
1533.4134, -61.276
1533.4534, -61.355
1533.4934, -61.462
1533.5334, -61.570
1533.5734, -61.653
1533.6134, -61.771
1533.6535, -61.877
1533.6935, -62.018
1533.7335, -62.100
1533.7735, -62.249
1533.8135, -62.329
1533.8535, -62.454
1533.8936, -62.528
1533.9336, -62.558
1533.9736, -62.616
1534.0136, -62.624
1534.0536, -62.656
1534.0936, -62.607
1534.1337, -62.667
1534.1737, -62.620
1534.2137, -62.581
1534.2537, -62.605
1534.2937, -62.559
1534.3337, -62.527
1534.3737, -62.492
1534.4138, -62.471
1534.4538, -62.405
1534.4938, -62.368
1534.5338, -62.305
1534.5738, -62.312
1534.6138, -62.262
1534.6539, -62.216
1534.6939, -62.150
1534.7339, -62.098
1534.7739, -62.063
1534.8139, -62.045
1534.8539, -61.983
1534.8940, -61.982
1534.9340, -61.916
1534.9740, -61.958
1535.0140, -61.874
1535.0540, -61.895
1535.0940, -61.830
1535.1341, -61.820
1535.1741, -61.851
1535.2141, -61.793
1535.2541, -61.803
1535.2941, -61.797
1535.3341, -61.758
1535.3741, -61.747
1535.4142, -61.750
1535.4542, -61.749
1535.4942, -61.756
1535.5342, -61.772
1535.5742, -61.768
1535.6142, -61.811
1535.6543, -61.816
1535.6943, -61.835
1535.7343, -61.903
1535.7743, -61.896
1535.8143, -61.948
1535.8543, -61.994
1535.8944, -62.082
1535.9344, -62.173
1535.9744, -62.199
1536.0144, -62.337
1536.0544, -62.449
1536.0944, -62.542
1536.1345, -62.654
1536.1745, -62.756
1536.2145, -62.888
1536.2545, -62.960
1536.2945, -63.124
1536.3345, -63.198
1536.3745, -63.387
1536.4146, -63.437
1536.4546, -63.636
1536.4946, -63.726
1536.5346, -63.931
1536.5746, -64.062
1536.6146, -64.212
1536.6547, -64.339
1536.6947, -64.554
1536.7347, -64.651
1536.7747, -64.842
1536.8147, -64.929
1536.8547, -65.055
1536.8948, -65.186
1536.9348, -65.290
1536.9748, -65.419
1537.0148, -65.462
1537.0548, -65.548
1537.0948, -65.584
1537.1349, -65.622
1537.1749, -65.676
1537.2149, -65.652
1537.2549, -65.730
1537.2949, -65.693
1537.3349, -65.769
1537.3749, -65.826
1537.4150, -65.789
1537.4550, -65.664
1537.4950, -65.682
1537.5350, -65.616
1537.5750, -65.640
1537.6150, -65.600
1537.6551, -65.581
1537.6951, -65.486
1537.7351, -65.449
1537.7751, -65.382
1537.8151, -65.381
1537.8551, -65.369
1537.8952, -65.292
1537.9352, -65.265
1537.9752, -65.226
1538.0152, -65.194
1538.0552, -65.251
1538.0952, -65.281
1538.1353, -65.274
1538.1753, -65.358
1538.2153, -65.376
1538.2553, -65.366
1538.2953, -65.451
1538.3353, -65.551
1538.3754, -65.568
1538.4154, -65.617
1538.4554, -65.725
1538.4954, -65.693
1538.5354, -65.830
1538.5754, -65.956
1538.6154, -65.942
1538.6555, -66.067
1538.6955, -66.065
1538.7355, -66.215
1538.7755, -66.290
1538.8155, -66.403
1538.8555, -66.530
1538.8956, -66.581
1538.9356, -66.710
1538.9756, -66.763
1539.0156, -66.925
1539.0556, -66.946
1539.0956, -67.132
1539.1357, -67.214
1539.1757, -67.438
1539.2157, -67.525
1539.2557, -67.710
1539.2957, -67.807
1539.3357, -67.883
1539.3758, -67.997
1539.4158, -68.206
1539.4558, -68.260
1539.4958, -68.320
1539.5358, -68.419
1539.5758, -68.472
1539.6158, -68.500
1539.6559, -68.438
1539.6959, -68.471
1539.7359, -68.385
1539.7759, -68.079
1539.8159, -68.004
1539.8559, -67.921
1539.8960, -67.647
1539.9360, -67.478
1539.9760, -67.199
1540.0160, -67.053
1540.0560, -66.798
1540.0960, -66.626
1540.1361, -66.438
1540.1761, -66.197
1540.2161, -66.008
1540.2561, -65.926
1540.2961, -65.703
1540.3361, -65.482
1540.3762, -65.367
1540.4162, -65.160
1540.4562, -65.026
1540.4962, -64.892
1540.5362, -64.789
1540.5762, -64.616
1540.6162, -64.591
1540.6563, -64.443
1540.6963, -64.348
1540.7363, -64.168
1540.7763, -64.233
1540.8163, -64.094
1540.8563, -64.038
1540.8964, -64.017
1540.9364, -63.999
1540.9764, -63.989
1541.0164, -64.000
1541.0564, -63.930
1541.0964, -64.030
1541.1365, -63.957
1541.1765, -64.000
1541.2165, -64.035
1541.2565, -64.046
1541.2965, -64.052
1541.3365, -64.091
1541.3766, -64.150
1541.4166, -64.238
1541.4566, -64.214
1541.4966, -64.228
1541.5366, -64.274
1541.5766, -64.336
1541.6166, -64.444
1541.6567, -64.420
1541.6967, -64.502
1541.7367, -64.590
1541.7767, -64.570
1541.8167, -64.688
1541.8567, -64.658
1541.8968, -64.721
1541.9368, -64.708
1541.9768, -64.736
1542.0168, -64.744
1542.0568, -64.715
1542.0968, -64.654
1542.1369, -64.592
1542.1769, -64.570
1542.2169, -64.436
1542.2569, -64.455
1542.2969, -64.304
1542.3369, -64.159
1542.3770, -64.013
1542.4170, -63.938
1542.4570, -63.838
1542.4970, -63.716
1542.5370, -63.612
1542.5770, -63.542
1542.6170, -63.442
1542.6571, -63.377
1542.6971, -63.329
1542.7371, -63.239
1542.7771, -63.169
1542.8171, -63.144
1542.8571, -63.031
1542.8972, -63.013
1542.9372, -63.002
1542.9772, -62.988
1543.0172, -62.998
1543.0572, -62.946
1543.0972, -62.985
1543.1373, -62.911
1543.1773, -63.029
1543.2173, -62.968
1543.2573, -62.970
1543.2973, -63.031
1543.3373, -63.039
1543.3774, -63.104
1543.4174, -63.086
1543.4574, -63.128
1543.4974, -63.143
1543.5374, -63.168
1543.5774, -63.182
1543.6174, -63.267
1543.6575, -63.256
1543.6975, -63.378
1543.7375, -63.419
1543.7775, -63.529
1543.8175, -63.557
1543.8575, -63.709
1543.8976, -63.843
1543.9376, -63.948
1543.9776, -64.136
1544.0176, -64.234
1544.0576, -64.424
1544.0976, -64.583
1544.1377, -64.755
1544.1777, -64.985
1544.2177, -65.153
1544.2577, -65.350
1544.2977, -65.570
1544.3377, -65.871
1544.3778, -66.163
1544.4178, -66.466
1544.4578, -66.733
1544.4978, -67.080
1544.5378, -67.501
1544.5778, -67.728
1544.6178, -68.052
1544.6579, -68.363
1544.6979, -68.892
1544.7379, -69.079
1544.7779, -69.397
1544.8179, -69.771
1544.8579, -69.757
1544.8980, -70.101
1544.9380, -69.860
1544.9780, -70.166
1545.0180, -70.241
1545.0580, -70.160
1545.0980, -70.041
1545.1381, -70.105
1545.1781, -69.748
1545.2181, -69.650
1545.2581, -69.808
1545.2981, -69.723
1545.3381, -69.361
1545.3782, -69.175
1545.4182, -69.061
1545.4582, -68.925
1545.4982, -68.707
1545.5382, -68.603
1545.5782, -68.251
1545.6182, -68.171
1545.6583, -67.890
1545.6983, -67.604
1545.7383, -67.319
1545.7783, -67.221
1545.8183, -66.851
1545.8583, -66.818
1545.8984, -66.547
1545.9384, -66.359
1545.9784, -66.257
1546.0184, -65.985
1546.0584, -65.848
1546.0984, -65.687
1546.1385, -65.603
1546.1785, -65.371
1546.2185, -65.339
1546.2585, -65.211
1546.2985, -65.189
1546.3385, -65.067
1546.3786, -64.972
1546.4186, -64.884
1546.4586, -64.784
1546.4986, -64.727
1546.5386, -64.614
1546.5786, -64.648
1546.6186, -64.626
1546.6587, -64.492
1546.6987, -64.541
1546.7387, -64.523
1546.7787, -64.507
1546.8187, -64.542
1546.8587, -64.559
1546.8988, -64.584
1546.9388, -64.560
1546.9788, -64.718
1547.0188, -64.711
1547.0588, -64.811
1547.0988, -64.842
1547.1389, -64.894
1547.1789, -65.026
1547.2189, -65.038
1547.2589, -65.145
1547.2989, -65.281
1547.3389, -65.251
1547.3790, -65.327
1547.4190, -65.414
1547.4590, -65.459
1547.4990, -65.417
1547.5390, -65.521
1547.5790, -65.569
1547.6190, -65.665
1547.6591, -65.602
1547.6991, -65.688
1547.7391, -65.780
1547.7791, -65.745
1547.8191, -65.826
1547.8591, -65.894
1547.8992, -66.016
1547.9392, -65.997
1547.9792, -66.098
1548.0192, -66.113
1548.0592, -66.197
1548.0992, -66.263
1548.1393, -66.258
1548.1793, -66.387
1548.2193, -66.446
1548.2593, -66.471
1548.2993, -66.577
1548.3393, -66.627
1548.3794, -66.715
1548.4194, -66.764
1548.4594, -66.911
1548.4994, -66.965
1548.5394, -67.095
1548.5794, -67.279
1548.6194, -67.277
1548.6595, -67.478
1548.6995, -67.431
1548.7395, -67.679
1548.7795, -67.724
1548.8195, -67.876
1548.8595, -68.030
1548.8996, -68.167
1548.9396, -68.198
1548.9796, -68.444
1549.0196, -68.378
1549.0596, -68.670
1549.0996, -68.850
1549.1397, -68.962
1549.1797, -69.041
1549.2197, -69.215
1549.2597, -69.547
1549.2997, -69.413
1549.3397, -69.620
1549.3798, -69.763
1549.4198, -69.912
1549.4598, -70.104
1549.4998, -70.220
1549.5398, -70.231
1549.5798, -70.534
1549.6198, -70.491
1549.6599, -70.779
1549.6999, -70.952
1549.7399, -70.965
1549.7799, -71.014
1549.8199, -71.525
1549.8599, -71.489
1549.9000, -71.550
1549.9400, -71.772
1549.9800, -71.819
1550.0200, -71.818
1550.0600, -72.083
1550.1000, -72.035
1550.1401, -71.935
1550.1801, -71.777
1550.2201, -72.000
1550.2601, -72.239
1550.3001, -71.838
1550.3401, -71.960
1550.3802, -71.825
1550.4202, -71.816
1550.4602, -71.803
1550.5002, -71.708
1550.5402, -71.665
1550.5802, -71.698
1550.6202, -71.758
1550.6603, -71.282
1550.7003, -71.399
1550.7403, -71.681
1550.7803, -71.267
1550.8203, -71.404
1550.8603, -71.154
1550.9004, -71.370
1550.9404, -71.324
1550.9804, -70.992
1551.0204, -71.273
1551.0604, -70.956
1551.1004, -71.037
1551.1405, -70.771
1551.1805, -70.887
1551.2205, -70.663
1551.2605, -70.984
1551.3005, -70.567
1551.3405, -70.604
1551.3806, -70.317
1551.4206, -70.265
1551.4606, -70.433
1551.5006, -70.259
1551.5406, -70.219
1551.5806, -70.097
1551.6206, -70.172
1551.6607, -70.322
1551.7007, -69.920
1551.7407, -70.373
1551.7807, -70.221
1551.8207, -70.320
1551.8607, -70.197
1551.9008, -70.076
1551.9408, -70.087
1551.9808, -70.029
1552.0208, -70.104
1552.0608, -69.997
1552.1008, -70.166
1552.1409, -70.057
1552.1809, -69.691
1552.2209, -69.603
1552.2609, -69.555
1552.3009, -69.442
1552.3409, -69.403
1552.3810, -69.200
1552.4210, -68.938
1552.4610, -68.869
1552.5010, -68.840
1552.5410, -68.625
1552.5810, -68.541
1552.6210, -68.429
1552.6611, -68.277
1552.7011, -67.957
1552.7411, -67.932
1552.7811, -67.731
1552.8211, -67.427
1552.8611, -67.391
1552.9012, -67.190
1552.9412, -67.069
1552.9812, -66.804
1553.0212, -66.686
1553.0612, -66.559
1553.1012, -66.531
1553.1413, -66.300
1553.1813, -66.211
1553.2213, -66.147
1553.2613, -66.009
1553.3013, -66.005
1553.3413, -65.914
1553.3814, -65.836
1553.4214, -65.776
1553.4614, -65.823
1553.5014, -65.709
1553.5414, -65.537
1553.5814, -65.667
1553.6214, -65.620
1553.6615, -65.543
1553.7015, -65.542
1553.7415, -65.575
1553.7815, -65.582
1553.8215, -65.570
1553.8615, -65.608
1553.9016, -65.601
1553.9416, -65.603
1553.9816, -65.624
1554.0216, -65.681
1554.0616, -65.746
1554.1016, -65.862
1554.1417, -65.623
1554.1817, -65.796
1554.2217, -65.727
1554.2617, -65.726
1554.3017, -65.673
1554.3417, -65.658
1554.3818, -65.482
1554.4218, -65.470
1554.4618, -65.416
1554.5018, -65.315
1554.5418, -65.252
1554.5818, -65.162
1554.6218, -65.059
1554.6619, -65.077
1554.7019, -64.997
1554.7419, -64.952
1554.7819, -64.927
1554.8219, -64.970
1554.8619, -64.895
1554.9020, -64.994
1554.9420, -65.019
1554.9820, -64.968
1555.0220, -65.014
1555.0620, -65.055
1555.1020, -65.086
1555.1421, -65.145
1555.1821, -65.122
1555.2221, -65.218
1555.2621, -65.264
1555.3021, -65.256
1555.3421, -65.344
1555.3822, -65.368
1555.4222, -65.447
1555.4622, -65.338
1555.5022, -65.429
1555.5422, -65.490
1555.5822, -65.539
1555.6222, -65.553
1555.6623, -65.573
1555.7023, -65.582
1555.7423, -65.601
1555.7823, -65.564
1555.8223, -65.585
1555.8623, -65.543
1555.9024, -65.531
1555.9424, -65.545
1555.9824, -65.528
1556.0224, -65.525
1556.0624, -65.406
1556.1024, -65.358
1556.1425, -65.362
1556.1825, -65.400
1556.2225, -65.324
1556.2625, -65.285
1556.3025, -65.240
1556.3425, -65.320
1556.3826, -65.268
1556.4226, -65.330
1556.4626, -65.317
1556.5026, -65.281
1556.5426, -65.363
1556.5826, -65.350
1556.6226, -65.413
1556.6627, -65.411
1556.7027, -65.457
1556.7427, -65.470
1556.7827, -65.537
1556.8227, -65.497
1556.8627, -65.526
1556.9028, -65.384
1556.9428, -65.469
1556.9828, -65.380
1557.0228, -65.249
1557.0628, -65.191
1557.1028, -65.167
1557.1429, -65.054
1557.1829, -64.944
1557.2229, -64.879
1557.2629, -64.716
1557.3029, -64.767
1557.3429, -64.629
1557.3830, -64.493
1557.4230, -64.450
1557.4630, -64.347
1557.5030, -64.232
1557.5430, -64.182
1557.5830, -64.130
1557.6230, -64.036
1557.6631, -63.982
1557.7031, -63.931
1557.7431, -63.922
1557.7831, -63.889
1557.8231, -63.847
1557.8631, -63.919
1557.9032, -63.914
1557.9432, -63.917
1557.9832, -63.972
1558.0232, -63.888
1558.0632, -63.913
1558.1032, -63.902
1558.1433, -63.921
1558.1833, -63.893
1558.2233, -63.838
1558.2633, -63.833
1558.3033, -63.823
1558.3433, -63.778
1558.3834, -63.735
1558.4234, -63.837
1558.4634, -63.797
1558.5034, -63.747
1558.5434, -63.859
1558.5834, -63.934
1558.6234, -63.932
1558.6635, -63.937
1558.7035, -64.125
1558.7435, -64.152
1558.7835, -64.246
1558.8235, -64.385
1558.8635, -64.519
1558.9036, -64.499
1558.9436, -64.687
1558.9836, -64.885
1559.0236, -64.988
1559.0636, -65.106
1559.1036, -65.339
1559.1437, -65.512
1559.1837, -65.729
1559.2237, -65.895
1559.2637, -66.164
1559.3037, -66.333
1559.3437, -66.704
1559.3838, -66.961
1559.4238, -67.081
1559.4638, -67.491
1559.5038, -67.789
1559.5438, -68.006
1559.5838, -68.318
1559.6238, -68.671
1559.6639, -68.847
1559.7039, -69.096
1559.7439, -69.464
1559.7839, -69.519
1559.8239, -69.908
1559.8639, -69.952
1559.9040, -70.235
1559.9440, -70.476
1559.9840, -70.783
1560.0240, -70.919
1560.0640, -71.276
1560.1040, -71.174
1560.1441, -71.372
1560.1841, -71.279
1560.2241, -71.748
1560.2641, -71.324
1560.3041, -71.714
1560.3441, -71.562
1560.3842, -71.673
1560.4242, -71.483
1560.4642, -71.374
1560.5042, -71.229
1560.5442, -71.519
1560.5842, -71.237
1560.6242, -70.913
1560.6643, -71.037
1560.7043, -70.689
1560.7443, -70.858
1560.7843, -70.697
1560.8243, -70.466
1560.8643, -70.628
1560.9044, -70.350
1560.9444, -70.642
1560.9844, -70.484
1561.0244, -70.354
1561.0644, -70.574
1561.1044, -70.476
1561.1445, -70.566
1561.1845, -70.594
1561.2245, -70.780
1561.2645, -70.899
1561.3045, -70.732
1561.3445, -71.037
1561.3846, -70.990
1561.4246, -71.160
1561.4646, -71.311
1561.5046, -71.364
1561.5446, -71.453
1561.5846, -71.341
1561.6246, -71.201
1561.6647, -71.645
1561.7047, -71.723
1561.7447, -71.804
1561.7847, -71.703
1561.8247, -71.950
1561.8647, -72.275
1561.9048, -72.057
1561.9448, -72.307
1561.9848, -72.010
1562.0248, -72.404
1562.0648, -72.519
1562.1048, -72.521
1562.1449, -72.690
1562.1849, -72.411
1562.2249, -72.437
1562.2649, -72.726
1562.3049, -73.264
1562.3449, -72.828
1562.3850, -72.608
1562.4250, -73.017
1562.4650, -73.443
1562.5050, -73.299
1562.5450, -73.209
1562.5850, -73.537
1562.6251, -73.675
1562.6651, -73.923
1562.7051, -74.130
1562.7451, -73.687
1562.7851, -73.808
1562.8251, -74.076
1562.8651, -74.830
1562.9052, -74.111
1562.9452, -74.335
1562.9852, -74.977
1563.0252, -74.754
1563.0652, -75.836
1563.1052, -76.095
1563.1453, -76.155
1563.1853, -76.048
1563.2253, -76.379
1563.2653, -76.958
1563.3053, -76.679
1563.3453, -77.422
1563.3854, -78.215
1563.4254, -78.856
1563.4654, -79.475
1563.5054, -77.991
1563.5454, -80.111
1563.5854, -78.711
1563.6255, -78.560
1563.6655, -81.114
1563.7055, -80.691
1563.7455, -81.631
1563.7855, -80.946
1563.8255, -83.434
1563.8655, -79.856
1563.9056, -81.863
1563.9456, -79.887
1563.9856, -81.016
1564.0256, -81.635
1564.0656, -82.648
1564.1056, -81.046
1564.1457, -79.233
1564.1857, -82.427
1564.2257, -82.870
1564.2657, -79.834
1564.3057, -82.140
1564.3457, -80.635
1564.3858, -78.227
1564.4258, -79.369
1564.4658, -80.582
1564.5058, -78.302
1564.5458, -78.682
1564.5858, -78.185
1564.6259, -77.733
1564.6659, -77.165
1564.7059, -78.820
1564.7459, -76.597
1564.7859, -76.747
1564.8259, -77.509
1564.8659, -76.764
1564.9060, -75.550
1564.9460, -77.566
1564.9860, -76.179
1565.0260, -76.529
1565.0660, -75.823
1565.1060, -76.561
1565.1461, -76.483
1565.1861, -75.536
1565.2261, -76.234
1565.2661, -75.569
1565.3061, -76.727
1565.3461, -75.657
1565.3862, -75.659
1565.4262, -75.945
1565.4662, -75.857
1565.5062, -75.470
1565.5462, -76.235
1565.5862, -75.868
1565.6263, -75.064
1565.6663, -75.454
1565.7063, -75.079
1565.7463, -75.922
1565.7863, -76.104
1565.8263, -75.276
1565.8663, -74.995
1565.9064, -76.739
1565.9464, -74.839
1565.9864, -75.689
1566.0264, -75.616
1566.0664, -75.679
1566.1064, -76.023
1566.1465, -75.644
1566.1865, -76.257
1566.2265, -75.954
1566.2665, -75.815
1566.3065, -75.654
1566.3465, -76.977
1566.3866, -76.812
1566.4266, -76.690
1566.4666, -76.053
1566.5066, -75.483
1566.5466, -77.180
1566.5866, -76.347
1566.6267, -76.416
1566.6667, -76.183
1566.7067, -75.619
1566.7467, -76.404
1566.7867, -76.407
1566.8267, -75.845
1566.8667, -77.685
1566.9068, -75.783
1566.9468, -77.041
1566.9868, -76.549
1567.0268, -77.127
1567.0668, -76.340
1567.1068, -77.595
1567.1469, -76.868
1567.1869, -77.200
1567.2269, -76.379
1567.2669, -78.581
1567.3069, -77.154
1567.3469, -78.686
1567.3870, -76.743
1567.4270, -78.458
1567.4670, -78.261
1567.5070, -78.378
1567.5470, -77.832
1567.5870, -78.895
1567.6271, -78.664
1567.6671, -78.796
1567.7071, -80.101
1567.7471, -80.174
1567.7871, -80.196
1567.8271, -79.867
1567.8671, -81.881
1567.9072, -82.418
1567.9472, -79.604
1567.9872, -82.128
1568.0272, -83.823
1568.0672, -83.267
1568.1072, -86.965
1568.1473, -86.014
1568.1873, -81.109
1568.2273, -82.226
1568.2673,-210.000
1568.3073, -81.233
1568.3473, -92.598
1568.3874,-210.000
1568.4274, -86.999
1568.4674, -95.095
1568.5074, -87.263
1568.5474, -89.800
1568.5874, -89.006
1568.6275, -90.281
1568.6675, -91.306
1568.7075, -90.053
1568.7475, -87.879
1568.7875,-210.000
1568.8275, -85.836
1568.8675,-210.000
1568.9076, -82.656
1568.9476, -83.707
1568.9876,-210.000
1569.0276, -86.454
1569.0676, -84.407
1569.1076, -86.730
1569.1477, -83.499
1569.1877, -94.907
1569.2277, -89.960
1569.2677, -85.851
1569.3077, -87.612
1569.3477, -82.870
1569.3878, -82.248
1569.4278, -84.809
1569.4678, -83.986
1569.5078, -82.288
1569.5478, -82.841
1569.5878, -81.947
1569.6279, -84.745
1569.6679, -82.364
1569.7079, -81.826
1569.7479, -90.311
1569.7879, -82.489
1569.8279, -82.455
1569.8679, -84.356
1569.9080, -87.248
1569.9480, -82.924
1569.9880,-210.000
1570.0280, -81.909
1570.0680, -85.557
1570.1080, -89.465
1570.1481, -87.843
1570.1881, -87.076
1570.2281, -90.877
1570.2681, -83.434
1570.3081,-210.000
1570.3481,-210.000
1570.3882,-210.000
1570.4282, -84.004
1570.4682, -87.470
1570.5082,-210.000
1570.5482,-210.000
1570.5882,-210.000
1570.6283, -86.381
1570.6683,-210.000
1570.7083,-210.000
1570.7483,-210.000
1570.7883, -90.484
1570.8283, -88.519
1570.8683,-210.000
1570.9084,-210.000
1570.9484,-210.000
1570.9884,-210.000
1571.0284,-210.000
1571.0684,-210.000
1571.1084,-210.000
1571.1485,-210.000
1571.1885,-210.000
1571.2285, -85.611
1571.2685,-210.000
1571.3085,-210.000
1571.3485,-210.000
1571.3886,-210.000
1571.4286,-210.000
1571.4686, -95.223
1571.5086,-210.000
1571.5486,-210.000
1571.5886,-210.000
1571.6287,-210.000
1571.6687,-210.000
1571.7087, -86.603
1571.7487,-210.000
1571.7887,-210.000
1571.8287,-210.000
1571.8687,-210.000
1571.9088, -92.106
1571.9488,-210.000
1571.9888,-210.000
1572.0288,-210.000
1572.0688,-210.000
1572.1088,-210.000
1572.1489,-210.000
1572.1889,-210.000
1572.2289,-210.000
1572.2689,-210.000
1572.3089,-210.000
1572.3489,-210.000
1572.3890,-210.000
1572.4290,-100.529
1572.4690,-210.000
1572.5090,-210.000
1572.5490,-210.000
1572.5890,-210.000
1572.6291,-210.000
1572.6691, -88.282
1572.7091,-210.000
1572.7491,-210.000
1572.7891,-210.000
1572.8291,-210.000
1572.8691,-210.000
1572.9092,-210.000
1572.9492,-210.000
1572.9892,-210.000
1573.0292,-210.000
1573.0692,-210.000
1573.1092,-210.000
1573.1493,-210.000
1573.1893,-210.000
1573.2293,-210.000
1573.2693,-210.000
1573.3093,-210.000
1573.3493,-210.000
1573.3894, -86.425
1573.4294,-210.000
1573.4694,-210.000
1573.5094,-210.000
1573.5494,-210.000
1573.5894,-210.000
1573.6295,-210.000
1573.6695,-210.000
1573.7095,-210.000
1573.7495,-210.000
1573.7895,-210.000
1573.8295,-210.000
1573.8695,-210.000
1573.9096,-210.000
1573.9496,-210.000
1573.9896,-210.000
1574.0296,-210.000
1574.0696,-210.000
1574.1096,-210.000
1574.1497,-210.000
1574.1897,-210.000
1574.2297,-210.000
1574.2697,-210.000
1574.3097,-210.000
1574.3497, -87.684
1574.3898,-210.000
1574.4298, -89.943
1574.4698,-210.000
1574.5098,-210.000
1574.5498,-210.000
1574.5898,-210.000
1574.6299, -88.919
1574.6699,-210.000
1574.7099, -88.013
1574.7499,-210.000
1574.7899,-210.000
1574.8299,-210.000
1574.8699,-210.000
1574.9100,-210.000
1574.9500,-210.000
1574.9900,-210.000
1575.0300,-210.000
1575.0700,-210.000
1575.1100,-210.000
1575.1501,-210.000
1575.1901,-210.000
1575.2301,-210.000
1575.2701,-210.000
1575.3101,-210.000
1575.3501,-210.000
1575.3902,-210.000
1575.4302,-210.000
1575.4702,-210.000
1575.5102, -90.366
1575.5502,-210.000
1575.5902,-210.000
1575.6303,-210.000
1575.6703,-210.000
1575.7103,-210.000
1575.7503,-210.000
1575.7903,-210.000
1575.8303,-210.000
1575.8703,-210.000
1575.9104,-210.000
1575.9504,-210.000
1575.9904,-210.000
1576.0304,-210.000
1576.0704,-210.000
1576.1104,-210.000
1576.1505,-210.000
1576.1905,-210.000
1576.2305,-210.000
1576.2705,-210.000
1576.3105,-210.000
1576.3505,-210.000
1576.3906,-210.000
1576.4306,-210.000
1576.4706,-210.000
1576.5106,-210.000
1576.5506,-210.000
1576.5906,-210.000
1576.6307,-210.000
1576.6707,-210.000
1576.7107,-210.000
1576.7507,-210.000
1576.7907, -84.510
1576.8307,-210.000
1576.8707,-210.000
1576.9108,-210.000
1576.9508,-210.000
1576.9908,-210.000
1577.0308,-210.000
1577.0708,-210.000
1577.1108,-210.000
1577.1509,-210.000
1577.1909,-210.000
1577.2309,-210.000
1577.2709,-210.000
1577.3109,-210.000
1577.3509,-210.000
1577.3910,-210.000
1577.4310,-210.000
1577.4710,-210.000
1577.5110,-210.000
1577.5510,-210.000
1577.5910,-210.000
1577.6311,-210.000
1577.6711,-210.000
1577.7111,-210.000
1577.7511,-210.000
1577.7911,-210.000
1577.8311,-210.000
1577.8711,-210.000
1577.9112,-210.000
1577.9512,-210.000
1577.9912,-210.000
1578.0312,-210.000
1578.0712,-210.000
1578.1112,-210.000
1578.1513,-210.000
1578.1913,-210.000
1578.2313,-210.000
1578.2713,-210.000
1578.3113,-210.000
1578.3513,-210.000
1578.3914,-210.000
1578.4314,-210.000
1578.4714,-210.000
1578.5114,-210.000
1578.5514,-210.000
1578.5914,-210.000
1578.6315,-210.000
1578.6715,-210.000
1578.7115,-210.000
1578.7515,-210.000
1578.7915,-210.000
1578.8315, -84.424
1578.8715,-210.000
1578.9116,-210.000
1578.9516,-210.000
1578.9916,-210.000
1579.0316,-210.000
1579.0716,-210.000
1579.1116,-210.000
1579.1517,-210.000
1579.1917,-210.000
1579.2317,-210.000
1579.2717,-210.000
1579.3117,-210.000
1579.3517,-210.000
1579.3918,-210.000
1579.4318,-210.000
1579.4718,-210.000
1579.5118,-210.000
1579.5518,-210.000
1579.5918,-210.000
1579.6319,-210.000
1579.6719,-210.000
1579.7119,-210.000
1579.7519,-113.103
1579.7919,-210.000
1579.8319,-210.000
1579.8719,-210.000
1579.9120,-210.000
1579.9520,-210.000
1579.9920,-210.000
1580.0320,-210.000
1580.0720,-210.000
1580.1120,-210.000
1580.1521,-210.000
1580.1921,-210.000
1580.2321,-210.000
1580.2721, -88.797
1580.3121,-210.000
1580.3521,-210.000
1580.3922,-210.000
1580.4322,-210.000
1580.4722,-210.000
1580.5122, -86.685
1580.5522,-210.000
1580.5922,-210.000
1580.6323,-210.000
1580.6723,-210.000
1580.7123,-210.000
1580.7523,-210.000
1580.7923,-210.000
1580.8323,-210.000
1580.8723,-210.000
1580.9124,-210.000
1580.9524,-210.000
1580.9924,-210.000
1581.0324,-210.000
1581.0724,-210.000
1581.1124,-210.000
1581.1525,-210.000
1581.1925,-210.000
1581.2325,-210.000
1581.2725,-210.000
1581.3125,-210.000
1581.3525,-210.000
1581.3926,-210.000
1581.4326,-210.000
1581.4726,-210.000
1581.5126,-210.000
1581.5526,-210.000
1581.5926,-210.000
1581.6327,-210.000
1581.6727,-210.000
1581.7127,-210.000
1581.7527,-210.000
1581.7927,-210.000
1581.8327,-210.000
1581.8727,-210.000
1581.9128,-210.000
1581.9528,-210.000
1581.9928,-210.000
1582.0328,-210.000
1582.0728,-210.000
1582.1128,-210.000
1582.1529,-210.000
1582.1929,-210.000
1582.2329,-210.000
1582.2729,-210.000
1582.3129,-210.000
1582.3529,-210.000
1582.3930,-210.000
1582.4330,-210.000
1582.4730,-101.588
1582.5130,-210.000
1582.5530,-210.000
1582.5930,-210.000
1582.6331,-210.000
1582.6731,-210.000
1582.7131,-210.000
1582.7531,-210.000
1582.7931,-210.000
1582.8331,-210.000
1582.8731,-210.000
1582.9132,-210.000
1582.9532,-210.000
1582.9932,-210.000
1583.0332,-210.000
1583.0732,-210.000
1583.1132,-210.000
1583.1533,-210.000
1583.1933,-210.000
1583.2333,-210.000
1583.2733,-210.000
1583.3133,-210.000
1583.3533,-210.000
1583.3934,-210.000
1583.4334,-210.000
1583.4734,-210.000
1583.5134,-210.000
1583.5534,-210.000
1583.5934,-210.000
1583.6335,-210.000
1583.6735,-210.000
1583.7135,-210.000
1583.7535,-210.000
1583.7935,-210.000
1583.8335,-210.000
1583.8735,-210.000
1583.9136,-210.000
1583.9536,-210.000
1583.9936,-210.000
1584.0336,-210.000
1584.0736,-210.000
1584.1136,-210.000
1584.1537,-210.000
1584.1937,-210.000
1584.2337,-210.000
1584.2737, -99.814
1584.3137,-210.000
1584.3537,-210.000
1584.3938,-210.000
1584.4338,-210.000
1584.4738,-210.000
1584.5138,-210.000
1584.5538,-210.000
1584.5938,-210.000
1584.6339,-210.000
1584.6739,-210.000
1584.7139,-210.000
1584.7539,-210.000
1584.7939,-210.000
1584.8339,-210.000
1584.8739,-210.000
1584.9140,-210.000
1584.9540,-210.000
1584.9940,-210.000
1585.0340,-210.000
1585.0740,-210.000
1585.1140,-210.000
1585.1541,-210.000
1585.1941,-210.000
1585.2341,-210.000
1585.2741,-210.000
1585.3141,-210.000
1585.3541,-210.000
1585.3942,-210.000
1585.4342,-210.000
1585.4742,-210.000
1585.5142,-210.000
1585.5542,-210.000
1585.5942,-210.000
1585.6343,-210.000
1585.6743,-210.000
1585.7143,-210.000
1585.7543,-210.000
1585.7943, -86.469
1585.8343,-210.000
1585.8743,-210.000
1585.9144,-210.000
1585.9544,-210.000
1585.9944,-210.000
1586.0344,-210.000
1586.0744,-210.000
1586.1144,-210.000
1586.1545,-210.000
1586.1945,-210.000
1586.2345,-210.000
1586.2745, -92.281
1586.3145,-210.000
1586.3545,-210.000
1586.3946,-210.000
1586.4346,-210.000
1586.4746, -87.987
1586.5146,-210.000
1586.5546,-106.627
1586.5946,-210.000
1586.6347,-210.000
1586.6747,-210.000
1586.7147,-210.000
1586.7547,-210.000
1586.7947,-210.000
1586.8347,-210.000
1586.8747,-210.000
1586.9148,-210.000
1586.9548,-210.000
1586.9948,-210.000
1587.0348,-210.000
1587.0748,-210.000
1587.1148,-210.000
1587.1549,-210.000
1587.1949,-210.000
1587.2349,-210.000
1587.2749,-210.000
1587.3149,-210.000
1587.3549,-210.000
1587.3950,-210.000
1587.4350,-210.000
1587.4750,-210.000
1587.5150,-210.000
1587.5550,-210.000
1587.5950,-210.000
1587.6351,-210.000
1587.6751,-210.000
1587.7151,-210.000
1587.7551,-210.000
1587.7951,-210.000
1587.8351,-210.000
1587.8752,-210.000
1587.9152,-210.000
1587.9552,-210.000
1587.9952,-210.000
1588.0352,-210.000
1588.0752,-210.000
1588.1152,-210.000
1588.1553,-210.000
1588.1953,-210.000
1588.2353,-210.000
1588.2753,-210.000
1588.3153,-210.000
1588.3553,-210.000
1588.3954,-210.000
1588.4354,-210.000
1588.4754,-210.000
1588.5154,-210.000
1588.5554,-210.000
1588.5954,-210.000
1588.6355,-210.000
1588.6755,-210.000
1588.7155,-210.000
1588.7555,-210.000
1588.7955,-210.000
1588.8355,-210.000
1588.8756,-210.000
1588.9156,-210.000
1588.9556,-210.000
1588.9956,-210.000
1589.0356,-210.000
1589.0756,-210.000
1589.1156,-210.000
1589.1557,-210.000
1589.1957,-210.000
1589.2357,-210.000
1589.2757,-210.000
1589.3157,-210.000
1589.3557,-210.000
1589.3958,-210.000
1589.4358,-210.000
1589.4758,-210.000
1589.5158,-210.000
1589.5558,-210.000
1589.5958,-210.000
1589.6359,-210.000
1589.6759,-210.000
1589.7159,-210.000
1589.7559,-210.000
1589.7959,-210.000
1589.8359,-210.000
1589.8760,-210.000
1589.9160,-210.000
1589.9560,-210.000
1589.9960,-210.000
1590.0360,-210.000
1590.0760,-210.000
1590.1160,-210.000
1590.1561,-210.000
1590.1961,-210.000
1590.2361,-210.000
1590.2761,-210.000
1590.3161,-210.000
1590.3561,-210.000
1590.3962,-210.000
1590.4362,-210.000
1590.4762,-210.000
1590.5162,-210.000
1590.5562,-210.000
1590.5962,-210.000
1590.6363,-210.000
1590.6763,-210.000
1590.7163,-210.000
1590.7563,-210.000
1590.7963,-210.000
1590.8363,-210.000
1590.8764,-210.000
1590.9164,-210.000
1590.9564,-210.000
1590.9964,-210.000
1591.0364,-210.000
1591.0764,-210.000
1591.1164,-210.000
1591.1565,-210.000
1591.1965,-210.000
1591.2365,-210.000
1591.2765,-210.000
1591.3165,-210.000
1591.3565,-210.000
1591.3966,-210.000
1591.4366,-210.000
1591.4766,-210.000
1591.5166,-210.000
1591.5566,-210.000
1591.5966,-210.000
1591.6367,-210.000
1591.6767,-210.000
1591.7167,-210.000
1591.7567,-210.000
1591.7967,-210.000
1591.8367,-210.000
1591.8768,-210.000
1591.9168,-210.000
1591.9568, -83.711
1591.9968,-210.000
1592.0368,-210.000
1592.0768,-210.000
1592.1168,-210.000
1592.1569,-210.000
1592.1969,-210.000
1592.2369,-210.000
1592.2769,-210.000
1592.3169,-210.000
1592.3569,-210.000
1592.3970,-210.000
1592.4370,-210.000
1592.4770,-210.000
1592.5170,-210.000
1592.5570,-210.000
1592.5970,-210.000
1592.6371,-210.000
1592.6771,-210.000
1592.7171,-210.000
1592.7571,-210.000
1592.7971,-210.000
1592.8371,-210.000
1592.8772,-210.000
1592.9172,-210.000
1592.9572,-210.000
1592.9972,-210.000
1593.0372,-210.000
1593.0772,-210.000
1593.1172,-210.000
1593.1573,-210.000
1593.1973,-210.000
1593.2373,-210.000
1593.2773,-210.000
1593.3173,-210.000
1593.3573,-210.000
1593.3974,-210.000
1593.4374,-210.000
1593.4774,-210.000
1593.5174,-210.000
1593.5574,-210.000
1593.5974,-210.000
1593.6375,-210.000
1593.6775,-210.000
1593.7175,-210.000
1593.7575,-210.000
1593.7975,-210.000
1593.8375,-210.000
1593.8776,-210.000
1593.9176,-210.000
1593.9576,-210.000
1593.9976,-210.000
1594.0376,-210.000
1594.0776,-210.000
1594.1176,-210.000
1594.1577,-210.000
1594.1977,-210.000
1594.2377,-210.000
1594.2777,-210.000
1594.3177,-210.000
1594.3577,-210.000
1594.3978,-210.000
1594.4378,-210.000
1594.4778,-210.000
1594.5178,-210.000
1594.5578,-210.000
1594.5978,-210.000
1594.6379,-210.000
1594.6779,-210.000
1594.7179,-210.000
1594.7579,-210.000
1594.7979, -95.035
1594.8379,-210.000
1594.8780,-210.000
1594.9180,-210.000
1594.9580,-210.000
1594.9980,-210.000
1595.0380,-210.000
1595.0780,-210.000
1595.1180,-210.000
1595.1581,-210.000
1595.1981,-210.000
1595.2381,-210.000
1595.2781,-210.000
1595.3181,-210.000
1595.3581,-210.000
1595.3982,-210.000
1595.4382,-210.000
1595.4782,-210.000
1595.5182,-210.000
1595.5582,-210.000
1595.5982,-210.000
1595.6383,-210.000
1595.6783,-210.000
1595.7183,-210.000
1595.7583,-210.000
1595.7983,-210.000
1595.8383,-210.000
1595.8784,-210.000
1595.9184,-210.000
1595.9584,-210.000
1595.9984, -88.002
1596.0384,-210.000
1596.0784,-210.000
1596.1184,-210.000
1596.1585, -91.167
1596.1985,-210.000
1596.2385,-210.000
1596.2785,-210.000
1596.3185,-210.000
1596.3585,-210.000
1596.3986,-210.000
1596.4386,-210.000
1596.4786,-210.000
1596.5186,-210.000
1596.5586, -87.794
1596.5986,-210.000
1596.6387,-210.000
1596.6787,-210.000
1596.7187,-210.000
1596.7587,-210.000
1596.7987,-210.000
1596.8387,-210.000
1596.8788,-210.000
1596.9188,-210.000
1596.9588,-210.000
1596.9988,-210.000
1597.0388,-210.000
1597.0788,-210.000
1597.1188,-210.000
1597.1589,-210.000
1597.1989,-210.000
1597.2389,-210.000
1597.2789,-210.000
1597.3189,-210.000
1597.3589,-210.000
1597.3990,-210.000
1597.4390,-210.000
1597.4790,-210.000
1597.5190,-210.000
1597.5590,-210.000
1597.5990,-210.000
1597.6391,-210.000
1597.6791,-210.000
1597.7191,-210.000
1597.7591,-210.000
1597.7991,-210.000
1597.8391,-210.000
1597.8792,-210.000
1597.9192,-210.000
1597.9592,-210.000
1597.9992,-210.000
1598.0392,-210.000
1598.0792,-210.000
1598.1192,-210.000
1598.1593,-210.000
1598.1993,-210.000
1598.2393,-210.000
1598.2793,-210.000
1598.3193,-210.000
1598.3593,-210.000
1598.3994,-210.000
1598.4394,-210.000
1598.4794,-210.000
1598.5194,-210.000
1598.5594,-210.000
1598.5994,-210.000
1598.6395,-210.000
1598.6795,-210.000
1598.7195,-210.000
1598.7595,-210.000
1598.7995,-210.000
1598.8395,-210.000
1598.8796,-210.000
1598.9196, -87.447
1598.9596,-210.000
1598.9996,-210.000
1599.0396,-210.000
1599.0796,-210.000
1599.1196,-210.000
1599.1597,-210.000
1599.1997,-210.000
1599.2397,-210.000
1599.2797,-210.000
1599.3197,-210.000
1599.3597,-210.000
1599.3998,-210.000
1599.4398,-210.000
1599.4798,-210.000
1599.5198,-210.000
1599.5598,-210.000
1599.5998,-210.000
1599.6399, -94.389
1599.6799,-210.000
1599.7199,-210.000
1599.7599,-210.000
1599.7999,-210.000
1599.8399,-210.000
1599.8800,-210.000
1599.9200,-210.000
1599.9600,-210.000
1600.0000,-210.000
