70BCSV 	
// AQ6370B OPTICAL SPECTRUM ANALYZER //                 
25
"CTRWL",1550.000000
"SPAN", 100.000000
"START WL",1500.000000
"STOP WL",1600.000000
"WLFREQ", 0
"REFL",-58.5
"LSCL", 5.0
"RESLN",0.500
"AVG",   1
"SMPLAUTO",      0
"SMPL",       2500
"SMPLINTVL",0.0400
"HIGH1"
"MEAS"
"LSUNT",0
"NMSKH","OFF"
"RESCOR",0
"RESPARM", 9740
"FREQPARM", 9740






"[TRACE DATA]"
1500.0000,-210.000
1500.0400,-210.000
1500.0800,-210.000
1500.1200,-210.000
1500.1601,-210.000
1500.2001,-210.000
1500.2401,-210.000
1500.2801,-210.000
1500.3201,-210.000
1500.3601,-210.000
1500.4002,-210.000
1500.4402,-210.000
1500.4802,-210.000
1500.5202,-210.000
1500.5602,-210.000
1500.6002,-210.000
1500.6403,-210.000
1500.6803,-210.000
1500.7203,-210.000
1500.7603,-210.000
1500.8003,-210.000
1500.8403,-210.000
1500.8804,-210.000
1500.9204,-210.000
1500.9604,-210.000
1501.0004,-210.000
1501.0404,-210.000
1501.0804,-210.000
1501.1204,-210.000
1501.1605,-210.000
1501.2005,-210.000
1501.2405,-210.000
1501.2805,-210.000
1501.3205,-210.000
1501.3605,-210.000
1501.4006,-210.000
1501.4406,-210.000
1501.4806,-210.000
1501.5206,-210.000
1501.5606,-210.000
1501.6006,-210.000
1501.6407,-210.000
1501.6807,-210.000
1501.7207,-210.000
1501.7607,-210.000
1501.8007,-210.000
1501.8407,-210.000
1501.8808,-210.000
1501.9208,-210.000
1501.9608,-210.000
1502.0008,-210.000
1502.0408,-210.000
1502.0808,-210.000
1502.1208,-210.000
1502.1609,-210.000
1502.2009,-210.000
1502.2409,-210.000
1502.2809,-210.000
1502.3209,-210.000
1502.3609,-210.000
1502.4010,-210.000
1502.4410,-210.000
1502.4810,-210.000
1502.5210,-210.000
1502.5610,-210.000
1502.6010,-210.000
1502.6411,-210.000
1502.6811,-210.000
1502.7211,-210.000
1502.7611,-210.000
1502.8011,-210.000
1502.8411,-210.000
1502.8812,-210.000
1502.9212,-210.000
1502.9612,-210.000
1503.0012,-210.000
1503.0412,-210.000
1503.0812,-210.000
1503.1212,-210.000
1503.1613,-210.000
1503.2013,-210.000
1503.2413,-210.000
1503.2813,-210.000
1503.3213,-210.000
1503.3613,-210.000
1503.4014,-210.000
1503.4414,-210.000
1503.4814,-210.000
1503.5214,-210.000
1503.5614,-210.000
1503.6014,-210.000
1503.6415,-210.000
1503.6815,-210.000
1503.7215,-210.000
1503.7615,-210.000
1503.8015,-210.000
1503.8415,-210.000
1503.8816,-210.000
1503.9216,-210.000
1503.9616,-210.000
1504.0016,-210.000
1504.0416,-210.000
1504.0816,-210.000
1504.1216,-210.000
1504.1617,-210.000
1504.2017,-210.000
1504.2417,-210.000
1504.2817,-210.000
1504.3217,-210.000
1504.3617,-210.000
1504.4018,-210.000
1504.4418,-210.000
1504.4818,-210.000
1504.5218,-210.000
1504.5618,-210.000
1504.6018,-210.000
1504.6419,-210.000
1504.6819,-210.000
1504.7219,-210.000
1504.7619,-210.000
1504.8019,-210.000
1504.8419,-210.000
1504.8820,-210.000
1504.9220,-210.000
1504.9620,-210.000
1505.0020,-210.000
1505.0420,-210.000
1505.0820,-210.000
1505.1220,-210.000
1505.1621,-210.000
1505.2021,-210.000
1505.2421,-210.000
1505.2821,-210.000
1505.3221,-210.000
1505.3621,-210.000
1505.4022,-210.000
1505.4422,-210.000
1505.4822,-210.000
1505.5222,-210.000
1505.5622,-210.000
1505.6022,-210.000
1505.6423,-210.000
1505.6823,-210.000
1505.7223,-210.000
1505.7623,-210.000
1505.8023,-210.000
1505.8423,-210.000
1505.8824,-210.000
1505.9224,-210.000
1505.9624,-210.000
1506.0024,-210.000
1506.0424,-210.000
1506.0824,-210.000
1506.1224,-210.000
1506.1625,-210.000
1506.2025,-210.000
1506.2425,-210.000
1506.2825,-210.000
1506.3225,-210.000
1506.3625,-210.000
1506.4026,-210.000
1506.4426,-210.000
1506.4826,-210.000
1506.5226,-210.000
1506.5626,-210.000
1506.6026,-210.000
1506.6427,-210.000
1506.6827,-210.000
1506.7227,-210.000
1506.7627,-210.000
1506.8027,-210.000
1506.8427,-210.000
1506.8828,-210.000
1506.9228,-210.000
1506.9628,-210.000
1507.0028,-210.000
1507.0428,-210.000
1507.0828,-210.000
1507.1228,-210.000
1507.1629,-210.000
1507.2029,-210.000
1507.2429,-210.000
1507.2829,-210.000
1507.3229,-210.000
1507.3629,-210.000
1507.4030,-210.000
1507.4430,-210.000
1507.4830,-210.000
1507.5230,-210.000
1507.5630,-210.000
1507.6030,-210.000
1507.6431,-210.000
1507.6831,-210.000
1507.7231,-210.000
1507.7631,-210.000
1507.8031,-210.000
1507.8431,-210.000
1507.8832,-210.000
1507.9232,-210.000
1507.9632,-210.000
1508.0032,-210.000
1508.0432,-210.000
1508.0832,-210.000
1508.1232,-210.000
1508.1633,-210.000
1508.2033,-210.000
1508.2433,-210.000
1508.2833,-210.000
1508.3233,-210.000
1508.3633,-210.000
1508.4034,-210.000
1508.4434,-210.000
1508.4834,-210.000
1508.5234,-210.000
1508.5634,-210.000
1508.6034,-210.000
1508.6435,-210.000
1508.6835,-210.000
1508.7235,-210.000
1508.7635,-210.000
1508.8035,-210.000
1508.8435,-210.000
1508.8836,-210.000
1508.9236,-210.000
1508.9636,-210.000
1509.0036,-210.000
1509.0436,-210.000
1509.0836,-210.000
1509.1236,-210.000
1509.1637,-210.000
1509.2037,-210.000
1509.2437,-210.000
1509.2837,-210.000
1509.3237,-210.000
1509.3637,-210.000
1509.4038,-210.000
1509.4438,-210.000
1509.4838,-210.000
1509.5238,-210.000
1509.5638,-210.000
1509.6038,-210.000
1509.6439,-210.000
1509.6839,-210.000
1509.7239,-210.000
1509.7639,-210.000
1509.8039,-210.000
1509.8439,-210.000
1509.8840,-210.000
1509.9240,-210.000
1509.9640,-210.000
1510.0040,-210.000
1510.0440,-210.000
1510.0840,-210.000
1510.1240,-210.000
1510.1641,-210.000
1510.2041,-210.000
1510.2441,-210.000
1510.2841,-210.000
1510.3241,-210.000
1510.3641,-210.000
1510.4042,-210.000
1510.4442,-210.000
1510.4842,-210.000
1510.5242,-210.000
1510.5642,-210.000
1510.6042,-210.000
1510.6443,-210.000
1510.6843,-210.000
1510.7243,-210.000
1510.7643,-210.000
1510.8043,-210.000
1510.8443, -85.231
1510.8844,-210.000
1510.9244,-210.000
1510.9644,-210.000
1511.0044,-210.000
1511.0444,-210.000
1511.0844,-210.000
1511.1244,-210.000
1511.1645,-210.000
1511.2045,-210.000
1511.2445,-210.000
1511.2845,-210.000
1511.3245,-210.000
1511.3645,-210.000
1511.4046,-210.000
1511.4446,-210.000
1511.4846,-210.000
1511.5246,-210.000
1511.5646,-210.000
1511.6046,-210.000
1511.6447,-210.000
1511.6847,-210.000
1511.7247,-210.000
1511.7647,-210.000
1511.8047,-210.000
1511.8447,-210.000
1511.8848,-210.000
1511.9248,-210.000
1511.9648,-210.000
1512.0048,-210.000
1512.0448,-210.000
1512.0848,-210.000
1512.1248,-210.000
1512.1649,-210.000
1512.2049,-210.000
1512.2449,-210.000
1512.2849,-210.000
1512.3249,-210.000
1512.3649,-210.000
1512.4050,-210.000
1512.4450,-210.000
1512.4850,-210.000
1512.5250,-210.000
1512.5650,-210.000
1512.6050,-210.000
1512.6451,-210.000
1512.6851,-210.000
1512.7251,-210.000
1512.7651,-210.000
1512.8051,-210.000
1512.8451,-210.000
1512.8852,-210.000
1512.9252,-210.000
1512.9652,-210.000
1513.0052,-210.000
1513.0452,-210.000
1513.0852,-210.000
1513.1253,-210.000
1513.1653,-210.000
1513.2053,-210.000
1513.2453,-210.000
1513.2853,-210.000
1513.3253,-210.000
1513.3653,-210.000
1513.4054,-210.000
1513.4454,-210.000
1513.4854,-210.000
1513.5254,-210.000
1513.5654,-210.000
1513.6054,-210.000
1513.6455,-210.000
1513.6855,-210.000
1513.7255,-210.000
1513.7655,-210.000
1513.8055,-210.000
1513.8455,-210.000
1513.8856,-210.000
1513.9256,-210.000
1513.9656,-210.000
1514.0056,-210.000
1514.0456,-210.000
1514.0856,-210.000
1514.1257,-210.000
1514.1657,-210.000
1514.2057,-210.000
1514.2457,-210.000
1514.2857,-210.000
1514.3257,-210.000
1514.3657,-210.000
1514.4058,-210.000
1514.4458,-210.000
1514.4858,-210.000
1514.5258,-210.000
1514.5658,-210.000
1514.6058,-210.000
1514.6459,-210.000
1514.6859,-210.000
1514.7259,-210.000
1514.7659,-210.000
1514.8059,-210.000
1514.8459,-210.000
1514.8860,-210.000
1514.9260,-210.000
1514.9660,-210.000
1515.0060,-210.000
1515.0460,-210.000
1515.0860,-210.000
1515.1261,-210.000
1515.1661,-210.000
1515.2061,-210.000
1515.2461,-210.000
1515.2861,-210.000
1515.3261,-210.000
1515.3661,-210.000
1515.4062,-210.000
1515.4462,-210.000
1515.4862,-210.000
1515.5262,-210.000
1515.5662,-210.000
1515.6062,-210.000
1515.6463,-210.000
1515.6863,-210.000
1515.7263,-210.000
1515.7663,-210.000
1515.8063,-210.000
1515.8463,-210.000
1515.8864,-210.000
1515.9264,-210.000
1515.9664,-210.000
1516.0064,-210.000
1516.0464,-210.000
1516.0864,-210.000
1516.1265,-210.000
1516.1665,-210.000
1516.2065,-210.000
1516.2465,-210.000
1516.2865,-210.000
1516.3265,-210.000
1516.3665,-210.000
1516.4066,-210.000
1516.4466,-210.000
1516.4866,-210.000
1516.5266,-210.000
1516.5666,-210.000
1516.6066,-210.000
1516.6467,-210.000
1516.6867,-210.000
1516.7267,-210.000
1516.7667,-210.000
1516.8067,-210.000
1516.8467,-210.000
1516.8868,-210.000
1516.9268,-210.000
1516.9668,-210.000
1517.0068,-210.000
1517.0468,-210.000
1517.0868,-210.000
1517.1269,-210.000
1517.1669,-210.000
1517.2069,-210.000
1517.2469,-210.000
1517.2869,-210.000
1517.3269,-210.000
1517.3669,-210.000
1517.4070,-210.000
1517.4470,-210.000
1517.4870,-210.000
1517.5270,-210.000
1517.5670,-210.000
1517.6070,-210.000
1517.6471, -92.402
1517.6871,-210.000
1517.7271,-210.000
1517.7671,-210.000
1517.8071,-210.000
1517.8471,-210.000
1517.8872,-210.000
1517.9272,-210.000
1517.9672,-210.000
1518.0072,-210.000
1518.0472,-210.000
1518.0872,-210.000
1518.1273,-210.000
1518.1673,-210.000
1518.2073,-210.000
1518.2473,-210.000
1518.2873,-210.000
1518.3273,-210.000
1518.3673,-210.000
1518.4074,-210.000
1518.4474,-210.000
1518.4874,-210.000
1518.5274,-210.000
1518.5674,-210.000
1518.6074,-210.000
1518.6475,-210.000
1518.6875,-210.000
1518.7275,-210.000
1518.7675,-210.000
1518.8075,-210.000
1518.8475,-210.000
1518.8876,-210.000
1518.9276,-210.000
1518.9676,-210.000
1519.0076,-210.000
1519.0476,-210.000
1519.0876,-210.000
1519.1277,-210.000
1519.1677,-210.000
1519.2077,-210.000
1519.2477,-210.000
1519.2877,-210.000
1519.3277,-210.000
1519.3677,-210.000
1519.4078,-210.000
1519.4478,-210.000
1519.4878,-210.000
1519.5278,-210.000
1519.5678,-210.000
1519.6078,-210.000
1519.6479,-210.000
1519.6879,-210.000
1519.7279,-210.000
1519.7679,-210.000
1519.8079,-210.000
1519.8479,-210.000
1519.8880,-210.000
1519.9280,-210.000
1519.9680,-210.000
1520.0080,-210.000
1520.0480,-210.000
1520.0880,-210.000
1520.1281,-210.000
1520.1681,-210.000
1520.2081,-210.000
1520.2481,-210.000
1520.2881,-210.000
1520.3281,-210.000
1520.3681,-210.000
1520.4082,-210.000
1520.4482,-210.000
1520.4882,-210.000
1520.5282,-210.000
1520.5682,-210.000
1520.6082,-210.000
1520.6483,-210.000
1520.6883,-210.000
1520.7283,-210.000
1520.7683,-210.000
1520.8083,-210.000
1520.8483,-210.000
1520.8884,-210.000
1520.9284,-210.000
1520.9684,-210.000
1521.0084,-210.000
1521.0484,-210.000
1521.0884,-210.000
1521.1285,-210.000
1521.1685,-210.000
1521.2085,-210.000
1521.2485,-210.000
1521.2885,-210.000
1521.3285,-210.000
1521.3685,-210.000
1521.4086,-210.000
1521.4486,-210.000
1521.4886,-210.000
1521.5286,-210.000
1521.5686,-210.000
1521.6086,-210.000
1521.6487,-210.000
1521.6887,-210.000
1521.7287, -92.884
1521.7687,-210.000
1521.8087,-210.000
1521.8487,-210.000
1521.8888,-210.000
1521.9288,-210.000
1521.9688,-210.000
1522.0088,-210.000
1522.0488,-210.000
1522.0888,-210.000
1522.1289,-210.000
1522.1689,-210.000
1522.2089,-210.000
1522.2489,-210.000
1522.2889,-210.000
1522.3289,-210.000
1522.3689,-210.000
1522.4090,-210.000
1522.4490,-210.000
1522.4890,-210.000
1522.5290,-210.000
1522.5690,-210.000
1522.6090,-210.000
1522.6491,-210.000
1522.6891,-210.000
1522.7291,-210.000
1522.7691, -94.231
1522.8091,-210.000
1522.8491,-210.000
1522.8892,-210.000
1522.9292,-210.000
1522.9692,-210.000
1523.0092,-210.000
1523.0492,-210.000
1523.0892,-210.000
1523.1293,-210.000
1523.1693,-210.000
1523.2093,-210.000
1523.2493,-210.000
1523.2893,-210.000
1523.3293,-210.000
1523.3693,-210.000
1523.4094,-210.000
1523.4494,-210.000
1523.4894,-210.000
1523.5294,-210.000
1523.5694,-210.000
1523.6094,-210.000
1523.6495, -83.025
1523.6895,-210.000
1523.7295,-210.000
1523.7695,-210.000
1523.8095,-210.000
1523.8495,-210.000
1523.8896,-210.000
1523.9296,-210.000
1523.9696,-210.000
1524.0096,-210.000
1524.0496,-210.000
1524.0896,-210.000
1524.1297, -86.311
1524.1697,-210.000
1524.2097,-210.000
1524.2497,-210.000
1524.2897,-210.000
1524.3297,-210.000
1524.3697,-210.000
1524.4098, -85.586
1524.4498,-210.000
1524.4898,-210.000
1524.5298, -95.669
1524.5698,-210.000
1524.6098, -88.132
1524.6499,-210.000
1524.6899,-210.000
1524.7299,-210.000
1524.7699,-210.000
1524.8099,-210.000
1524.8499,-210.000
1524.8900,-210.000
1524.9300,-210.000
1524.9700, -89.684
1525.0100,-210.000
1525.0500,-210.000
1525.0900,-210.000
1525.1301, -87.585
1525.1701,-210.000
1525.2101,-210.000
1525.2501,-210.000
1525.2901,-210.000
1525.3301,-210.000
1525.3701,-210.000
1525.4102,-210.000
1525.4502, -98.135
1525.4902,-210.000
1525.5302,-210.000
1525.5702,-210.000
1525.6102,-210.000
1525.6503,-210.000
1525.6903, -82.614
1525.7303,-210.000
1525.7703, -81.411
1525.8103, -83.757
1525.8503, -88.103
1525.8904, -81.293
1525.9304, -80.708
1525.9704, -86.532
1526.0104, -79.584
1526.0504, -80.096
1526.0904, -81.925
1526.1305, -82.089
1526.1705, -80.447
1526.2105, -80.280
1526.2505, -78.447
1526.2905, -79.689
1526.3305, -79.338
1526.3705, -77.861
1526.4106, -78.418
1526.4506, -78.244
1526.4906, -78.532
1526.5306, -77.324
1526.5706, -77.612
1526.6106, -76.597
1526.6507, -76.652
1526.6907, -75.722
1526.7307, -75.687
1526.7707, -75.663
1526.8107, -75.527
1526.8507, -75.705
1526.8908, -74.785
1526.9308, -74.529
1526.9708, -74.230
1527.0108, -74.437
1527.0508, -73.644
1527.0908, -74.286
1527.1309, -73.263
1527.1709, -73.709
1527.2109, -73.222
1527.2509, -73.170
1527.2909, -72.900
1527.3309, -72.885
1527.3709, -72.595
1527.4110, -72.616
1527.4510, -73.058
1527.4910, -72.391
1527.5310, -72.578
1527.5710, -71.907
1527.6110, -72.354
1527.6511, -72.183
1527.6911, -71.943
1527.7311, -72.107
1527.7711, -71.783
1527.8111, -71.636
1527.8511, -71.795
1527.8912, -71.589
1527.9312, -71.032
1527.9712, -71.330
1528.0112, -71.101
1528.0512, -70.795
1528.0912, -70.309
1528.1313, -70.588
1528.1713, -70.100
1528.2113, -69.987
1528.2513, -69.670
1528.2913, -69.411
1528.3313, -68.992
1528.3713, -68.880
1528.4114, -68.724
1528.4514, -68.363
1528.4914, -68.063
1528.5314, -67.806
1528.5714, -67.603
1528.6114, -67.350
1528.6515, -67.140
1528.6915, -66.817
1528.7315, -66.786
1528.7715, -66.455
1528.8115, -66.210
1528.8515, -66.012
1528.8916, -65.842
1528.9316, -65.526
1528.9716, -65.382
1529.0116, -65.102
1529.0516, -64.872
1529.0916, -64.465
1529.1317, -64.308
1529.1717, -63.906
1529.2117, -63.601
1529.2517, -63.281
1529.2917, -62.986
1529.3317, -62.663
1529.3717, -62.323
1529.4118, -62.033
1529.4518, -61.742
1529.4918, -61.450
1529.5318, -61.161
1529.5718, -60.881
1529.6118, -60.628
1529.6519, -60.380
1529.6919, -60.134
1529.7319, -59.909
1529.7719, -59.648
1529.8119, -59.425
1529.8519, -59.197
1529.8920, -58.953
1529.9320, -58.733
1529.9720, -58.513
1530.0120, -58.290
1530.0520, -58.095
1530.0920, -57.894
1530.1321, -57.732
1530.1721, -57.550
1530.2121, -57.418
1530.2521, -57.291
1530.2921, -57.180
1530.3321, -57.117
1530.3721, -57.048
1530.4122, -57.020
1530.4522, -56.995
1530.4922, -56.988
1530.5322, -57.009
1530.5722, -57.010
1530.6122, -57.062
1530.6523, -57.106
1530.6923, -57.139
1530.7323, -57.178
1530.7723, -57.252
1530.8123, -57.289
1530.8523, -57.350
1530.8924, -57.410
1530.9324, -57.464
1530.9724, -57.502
1531.0124, -57.580
1531.0524, -57.637
1531.0924, -57.715
1531.1325, -57.747
1531.1725, -57.802
1531.2125, -57.861
1531.2525, -57.926
1531.2925, -57.976
1531.3325, -58.013
1531.3725, -58.042
1531.4126, -58.058
1531.4526, -58.062
1531.4926, -58.033
1531.5326, -58.014
1531.5726, -57.964
1531.6126, -57.901
1531.6527, -57.845
1531.6927, -57.758
1531.7327, -57.642
1531.7727, -57.545
1531.8127, -57.447
1531.8527, -57.346
1531.8928, -57.234
1531.9328, -57.129
1531.9728, -57.022
1532.0128, -56.932
1532.0528, -56.832
1532.0928, -56.757
1532.1329, -56.668
1532.1729, -56.578
1532.2129, -56.504
1532.2529, -56.427
1532.2929, -56.360
1532.3329, -56.304
1532.3729, -56.240
1532.4130, -56.189
1532.4530, -56.138
1532.4930, -56.101
1532.5330, -56.083
1532.5730, -56.059
1532.6130, -56.068
1532.6531, -56.046
1532.6931, -56.061
1532.7331, -56.055
1532.7731, -56.061
1532.8131, -56.070
1532.8531, -56.095
1532.8932, -56.101
1532.9332, -56.100
1532.9732, -56.117
1533.0132, -56.135
1533.0532, -56.147
1533.0932, -56.171
1533.1333, -56.195
1533.1733, -56.220
1533.2133, -56.258
1533.2533, -56.274
1533.2933, -56.314
1533.3333, -56.345
1533.3733, -56.373
1533.4134, -56.403
1533.4534, -56.438
1533.4934, -56.457
1533.5334, -56.485
1533.5734, -56.514
1533.6134, -56.547
1533.6535, -56.571
1533.6935, -56.615
1533.7335, -56.654
1533.7735, -56.689
1533.8135, -56.747
1533.8535, -56.804
1533.8936, -56.852
1533.9336, -56.934
1533.9736, -56.997
1534.0136, -57.066
1534.0536, -57.141
1534.0936, -57.223
1534.1337, -57.305
1534.1737, -57.388
1534.2137, -57.493
1534.2537, -57.584
1534.2937, -57.682
1534.3337, -57.764
1534.3737, -57.870
1534.4138, -57.944
1534.4538, -58.050
1534.4938, -58.153
1534.5338, -58.253
1534.5738, -58.358
1534.6138, -58.458
1534.6539, -58.549
1534.6939, -58.655
1534.7339, -58.767
1534.7739, -58.888
1534.8139, -58.982
1534.8539, -59.085
1534.8940, -59.222
1534.9340, -59.312
1534.9740, -59.427
1535.0140, -59.567
1535.0540, -59.672
1535.0940, -59.806
1535.1341, -59.982
1535.1741, -60.063
1535.2141, -60.242
1535.2541, -60.407
1535.2941, -60.571
1535.3341, -60.773
1535.3741, -60.946
1535.4142, -61.153
1535.4542, -61.354
1535.4942, -61.600
1535.5342, -61.839
1535.5742, -62.072
1535.6142, -62.337
1535.6543, -62.594
1535.6943, -62.870
1535.7343, -63.084
1535.7743, -63.422
1535.8143, -63.770
1535.8543, -64.067
1535.8944, -64.371
1535.9344, -64.639
1535.9744, -64.979
1536.0144, -65.183
1536.0544, -65.460
1536.0944, -65.723
1536.1345, -65.905
1536.1745, -66.069
1536.2145, -66.210
1536.2545, -66.260
1536.2945, -66.236
1536.3345, -66.261
1536.3745, -66.217
1536.4146, -66.052
1536.4546, -66.106
1536.4946, -65.884
1536.5346, -65.676
1536.5746, -65.501
1536.6146, -65.469
1536.6547, -65.203
1536.6947, -65.051
1536.7347, -64.973
1536.7747, -64.867
1536.8147, -64.702
1536.8547, -64.555
1536.8948, -64.455
1536.9348, -64.404
1536.9748, -64.265
1537.0148, -64.285
1537.0548, -64.202
1537.0948, -64.220
1537.1349, -64.153
1537.1749, -64.201
1537.2149, -64.193
1537.2549, -64.126
1537.2949, -64.169
1537.3349, -64.239
1537.3749, -64.317
1537.4150, -64.276
1537.4550, -64.360
1537.4950, -64.482
1537.5350, -64.600
1537.5750, -64.606
1537.6150, -64.756
1537.6551, -64.777
1537.6951, -64.959
1537.7351, -65.009
1537.7751, -65.200
1537.8151, -65.374
1537.8551, -65.461
1537.8952, -65.566
1537.9352, -65.714
1537.9752, -65.821
1538.0152, -65.960
1538.0552, -66.107
1538.0952, -66.213
1538.1353, -66.369
1538.1753, -66.400
1538.2153, -66.529
1538.2553, -66.598
1538.2953, -66.750
1538.3353, -66.872
1538.3754, -66.901
1538.4154, -67.132
1538.4554, -67.179
1538.4954, -67.036
1538.5354, -67.264
1538.5754, -67.332
1538.6154, -67.368
1538.6555, -67.337
1538.6955, -67.313
1538.7355, -67.444
1538.7755, -67.308
1538.8155, -67.360
1538.8555, -67.371
1538.8956, -67.223
1538.9356, -67.217
1538.9756, -67.201
1539.0156, -66.991
1539.0556, -66.997
1539.0956, -66.973
1539.1357, -66.906
1539.1757, -66.849
1539.2157, -66.754
1539.2557, -66.690
1539.2957, -66.627
1539.3357, -66.710
1539.3758, -66.521
1539.4158, -66.527
1539.4558, -66.379
1539.4958, -66.421
1539.5358, -66.349
1539.5758, -66.421
1539.6158, -66.326
1539.6559, -66.333
1539.6959, -66.356
1539.7359, -66.406
1539.7759, -66.505
1539.8159, -66.433
1539.8559, -66.638
1539.8960, -66.798
1539.9360, -66.864
1539.9760, -66.971
1540.0160, -67.162
1540.0560, -67.221
1540.0960, -67.437
1540.1361, -67.512
1540.1761, -67.765
1540.2161, -67.713
1540.2561, -67.972
1540.2961, -67.985
1540.3361, -68.027
1540.3762, -68.142
1540.4162, -68.229
1540.4562, -68.191
1540.4962, -68.046
1540.5362, -68.243
1540.5762, -68.133
1540.6162, -68.232
1540.6563, -67.887
1540.6963, -68.032
1540.7363, -67.942
1540.7763, -67.760
1540.8163, -67.680
1540.8563, -67.581
1540.8964, -67.664
1540.9364, -67.483
1540.9764, -67.341
1541.0164, -67.158
1541.0564, -67.132
1541.0964, -67.088
1541.1365, -66.997
1541.1765, -66.792
1541.2165, -66.632
1541.2565, -66.752
1541.2965, -66.709
1541.3365, -66.570
1541.3766, -66.421
1541.4166, -66.326
1541.4566, -66.217
1541.4966, -66.154
1541.5366, -66.037
1541.5766, -65.928
1541.6166, -65.916
1541.6567, -65.699
1541.6967, -65.642
1541.7367, -65.539
1541.7767, -65.399
1541.8167, -65.300
1541.8567, -65.293
1541.8968, -65.109
1541.9368, -65.067
1541.9768, -64.941
1542.0168, -64.881
1542.0568, -64.780
1542.0968, -64.758
1542.1369, -64.687
1542.1769, -64.700
1542.2169, -64.629
1542.2569, -64.539
1542.2969, -64.571
1542.3369, -64.503
1542.3770, -64.545
1542.4170, -64.552
1542.4570, -64.601
1542.4970, -64.645
1542.5370, -64.745
1542.5770, -64.845
1542.6170, -64.863
1542.6571, -65.070
1542.6971, -65.151
1542.7371, -65.293
1542.7771, -65.383
1542.8171, -65.626
1542.8571, -65.698
1542.8972, -65.833
1542.9372, -65.905
1542.9772, -66.050
1543.0172, -66.108
1543.0572, -66.330
1543.0972, -66.446
1543.1373, -66.557
1543.1773, -66.595
1543.2173, -66.773
1543.2573, -66.851
1543.2973, -66.993
1543.3373, -67.212
1543.3774, -67.297
1543.4174, -67.344
1543.4574, -67.553
1543.4974, -67.798
1543.5374, -67.867
1543.5774, -67.923
1543.6174, -68.183
1543.6575, -68.483
1543.6975, -68.689
1543.7375, -68.818
1543.7775, -69.032
1543.8175, -69.279
1543.8575, -69.642
1543.8976, -69.911
1543.9376, -70.011
1543.9776, -70.242
1544.0176, -70.580
1544.0576, -71.105
1544.0976, -71.105
1544.1377, -71.250
1544.1777, -71.543
1544.2177, -72.134
1544.2577, -72.313
1544.2977, -73.009
1544.3377, -72.665
1544.3778, -73.182
1544.4178, -73.088
1544.4578, -73.200
1544.4978, -74.010
1544.5378, -74.166
1544.5778, -73.826
1544.6178, -73.652
1544.6579, -74.053
1544.6979, -73.648
1544.7379, -73.594
1544.7779, -73.156
1544.8179, -73.566
1544.8579, -72.939
1544.8980, -73.359
1544.9380, -73.140
1544.9780, -73.061
1545.0180, -73.246
1545.0580, -73.243
1545.0980, -72.734
1545.1381, -73.139
1545.1781, -73.102
1545.2181, -73.024
1545.2581, -72.923
1545.2981, -73.505
1545.3381, -73.097
1545.3782, -73.060
1545.4182, -73.274
1545.4582, -73.477
1545.4982, -73.218
1545.5382, -73.553
1545.5782, -73.274
1545.6182, -73.606
1545.6583, -73.701
1545.6983, -73.491
1545.7383, -73.745
1545.7783, -73.618
1545.8183, -73.289
1545.8583, -73.732
1545.8984, -73.485
1545.9384, -73.899
1545.9784, -74.024
1546.0184, -74.231
1546.0584, -73.570
1546.0984, -73.757
1546.1385, -74.389
1546.1785, -73.775
1546.2185, -73.771
1546.2585, -74.192
1546.2985, -73.971
1546.3385, -73.700
1546.3786, -73.479
1546.4186, -73.556
1546.4586, -73.418
1546.4986, -73.402
1546.5386, -73.006
1546.5786, -73.634
1546.6186, -73.003
1546.6587, -72.639
1546.6987, -72.642
1546.7387, -72.340
1546.7787, -72.237
1546.8187, -72.215
1546.8587, -71.865
1546.8988, -71.344
1546.9388, -71.413
1546.9788, -70.854
1547.0188, -70.787
1547.0588, -70.517
1547.0988, -70.341
1547.1389, -70.222
1547.1789, -69.871
1547.2189, -69.422
1547.2589, -69.231
1547.2989, -69.172
1547.3389, -68.811
1547.3790, -68.651
1547.4190, -68.338
1547.4590, -68.006
1547.4990, -67.849
1547.5390, -67.646
1547.5790, -67.299
1547.6190, -67.108
1547.6591, -66.858
1547.6991, -66.687
1547.7391, -66.458
1547.7791, -66.244
1547.8191, -66.204
1547.8591, -65.985
1547.8992, -65.779
1547.9392, -65.658
1547.9792, -65.496
1548.0192, -65.362
1548.0592, -65.266
1548.0992, -65.089
1548.1393, -65.028
1548.1793, -64.915
1548.2193, -64.837
1548.2593, -64.735
1548.2993, -64.682
1548.3393, -64.533
1548.3794, -64.438
1548.4194, -64.434
1548.4594, -64.342
1548.4994, -64.269
1548.5394, -64.124
1548.5794, -64.117
1548.6194, -64.032
1548.6595, -63.995
1548.6995, -64.001
1548.7395, -63.878
1548.7795, -63.847
1548.8195, -63.740
1548.8595, -63.762
1548.8996, -63.742
1548.9396, -63.669
1548.9796, -63.668
1549.0196, -63.645
1549.0596, -63.685
1549.0996, -63.664
1549.1397, -63.630
1549.1797, -63.660
1549.2197, -63.637
1549.2597, -63.705
1549.2997, -63.723
1549.3397, -63.755
1549.3798, -63.821
1549.4198, -63.816
1549.4598, -63.840
1549.4998, -63.933
1549.5398, -63.949
1549.5798, -63.957
1549.6198, -63.984
1549.6599, -64.074
1549.6999, -64.145
1549.7399, -64.229
1549.7799, -64.241
1549.8199, -64.354
1549.8599, -64.401
1549.9000, -64.483
1549.9400, -64.645
1549.9800, -64.712
1550.0200, -64.815
1550.0600, -64.976
1550.1000, -65.099
1550.1401, -65.233
1550.1801, -65.382
1550.2201, -65.581
1550.2601, -65.659
1550.3001, -65.877
1550.3401, -66.108
1550.3802, -66.322
1550.4202, -66.601
1550.4602, -66.749
1550.5002, -67.036
1550.5402, -67.401
1550.5802, -67.575
1550.6202, -67.954
1550.6603, -68.141
1550.7003, -68.657
1550.7403, -68.876
1550.7803, -69.229
1550.8203, -69.604
1550.8603, -69.758
1550.9004, -70.135
1550.9404, -70.501
1550.9804, -70.957
1551.0204, -70.800
1551.0604, -71.132
1551.1004, -71.278
1551.1405, -71.630
1551.1805, -71.523
1551.2205, -71.499
1551.2605, -71.350
1551.3005, -70.904
1551.3405, -70.845
1551.3806, -70.207
1551.4206, -69.972
1551.4606, -69.316
1551.5006, -69.258
1551.5406, -68.741
1551.5806, -68.405
1551.6206, -68.151
1551.6607, -67.837
1551.7007, -67.509
1551.7407, -67.229
1551.7807, -67.051
1551.8207, -66.546
1551.8607, -66.589
1551.9008, -66.327
1551.9408, -65.982
1551.9808, -65.980
1552.0208, -65.697
1552.0608, -65.583
1552.1008, -65.397
1552.1409, -65.339
1552.1809, -65.179
1552.2209, -64.997
1552.2609, -64.906
1552.3009, -64.853
1552.3409, -64.767
1552.3810, -64.651
1552.4210, -64.591
1552.4610, -64.560
1552.5010, -64.467
1552.5410, -64.384
1552.5810, -64.422
1552.6210, -64.290
1552.6611, -64.253
1552.7011, -64.289
1552.7411, -64.257
1552.7811, -64.175
1552.8211, -64.176
1552.8611, -64.145
1552.9012, -64.077
1552.9412, -64.099
1552.9812, -64.043
1553.0212, -64.054
1553.0612, -64.022
1553.1012, -63.950
1553.1413, -63.968
1553.1813, -63.966
1553.2213, -63.909
1553.2613, -63.925
1553.3013, -63.887
1553.3413, -63.885
1553.3814, -63.908
1553.4214, -63.878
1553.4614, -63.829
1553.5014, -63.832
1553.5414, -63.845
1553.5814, -63.801
1553.6214, -63.742
1553.6615, -63.783
1553.7015, -63.775
1553.7415, -63.764
1553.7815, -63.712
1553.8215, -63.704
1553.8615, -63.697
1553.9016, -63.637
1553.9416, -63.646
1553.9816, -63.624
1554.0216, -63.614
1554.0616, -63.608
1554.1016, -63.609
1554.1417, -63.617
1554.1817, -63.606
1554.2217, -63.627
1554.2617, -63.607
1554.3017, -63.653
1554.3417, -63.666
1554.3818, -63.702
1554.4218, -63.744
1554.4618, -63.725
1554.5018, -63.836
1554.5418, -63.858
1554.5818, -63.906
1554.6218, -63.950
1554.6619, -64.027
1554.7019, -64.054
1554.7419, -64.147
1554.7819, -64.232
1554.8219, -64.314
1554.8619, -64.380
1554.9020, -64.471
1554.9420, -64.566
1554.9820, -64.710
1555.0220, -64.727
1555.0620, -64.832
1555.1020, -64.974
1555.1421, -65.047
1555.1821, -65.120
1555.2221, -65.235
1555.2621, -65.393
1555.3021, -65.507
1555.3421, -65.732
1555.3822, -65.824
1555.4222, -65.924
1555.4622, -65.954
1555.5022, -66.237
1555.5422, -66.364
1555.5822, -66.450
1555.6222, -66.528
1555.6623, -66.696
1555.7023, -66.828
1555.7423, -66.886
1555.7823, -66.979
1555.8223, -67.013
1555.8623, -66.988
1555.9024, -67.210
1555.9424, -67.173
1555.9824, -67.259
1556.0224, -67.218
1556.0624, -67.236
1556.1024, -67.152
1556.1425, -67.341
1556.1825, -67.190
1556.2225, -67.268
1556.2625, -67.244
1556.3025, -67.191
1556.3425, -67.303
1556.3826, -67.448
1556.4226, -67.298
1556.4626, -67.452
1556.5026, -67.415
1556.5426, -67.418
1556.5826, -67.623
1556.6226, -67.518
1556.6627, -67.558
1556.7027, -67.423
1556.7427, -67.461
1556.7827, -67.344
1556.8227, -67.297
1556.8627, -67.369
1556.9028, -67.286
1556.9428, -67.229
1556.9828, -67.229
1557.0228, -67.179
1557.0628, -67.104
1557.1028, -67.033
1557.1429, -66.944
1557.1829, -66.958
1557.2229, -66.966
1557.2629, -66.916
1557.3029, -66.929
1557.3429, -66.830
1557.3830, -66.798
1557.4230, -66.697
1557.4630, -66.782
1557.5030, -66.673
1557.5430, -66.610
1557.5830, -66.472
1557.6230, -66.675
1557.6631, -66.680
1557.7031, -66.627
1557.7431, -66.558
1557.7831, -66.696
1557.8231, -66.741
1557.8631, -66.853
1557.9032, -66.755
1557.9432, -66.976
1557.9832, -67.134
1558.0232, -67.236
1558.0632, -67.288
1558.1032, -67.373
1558.1433, -67.613
1558.1833, -67.615
1558.2233, -67.834
1558.2633, -67.944
1558.3033, -68.087
1558.3433, -68.351
1558.3834, -68.291
1558.4234, -68.570
1558.4634, -68.690
1558.5034, -68.800
1558.5434, -68.952
1558.5834, -69.220
1558.6234, -69.394
1558.6635, -69.341
1558.7035, -69.593
1558.7435, -69.863
1558.7835, -69.787
1558.8235, -70.088
1558.8635, -70.517
1558.9036, -70.348
1558.9436, -70.607
1558.9836, -71.039
1559.0236, -71.372
1559.0636, -71.393
1559.1036, -71.918
1559.1437, -72.342
1559.1837, -72.341
1559.2237, -73.259
1559.2637, -73.597
1559.3037, -74.303
1559.3437, -74.975
1559.3838, -74.903
1559.4238, -75.951
1559.4638, -76.505
1559.5038, -76.433
1559.5438, -78.412
1559.5838, -77.693
1559.6238, -78.678
1559.6639, -79.530
1559.7039, -79.129
1559.7439, -79.570
1559.7839, -78.969
1559.8239, -77.307
1559.8639, -76.865
1559.9040, -77.502
1559.9440, -76.632
1559.9840, -75.589
1560.0240, -76.318
1560.0640, -74.978
1560.1040, -74.916
1560.1441, -74.478
1560.1841, -73.999
1560.2241, -73.435
1560.2641, -73.430
1560.3041, -72.946
1560.3441, -72.809
1560.3842, -73.297
1560.4242, -72.113
1560.4642, -71.938
1560.5042, -71.589
1560.5442, -71.787
1560.5842, -71.733
1560.6242, -71.420
1560.6643, -71.081
1560.7043, -70.870
1560.7443, -70.476
1560.7843, -70.699
1560.8243, -70.556
1560.8643, -70.127
1560.9044, -70.324
1560.9444, -69.948
1560.9844, -69.615
1561.0244, -69.800
1561.0644, -69.350
1561.1044, -69.368
1561.1445, -69.198
1561.1845, -69.074
1561.2245, -68.998
1561.2645, -69.010
1561.3045, -68.427
1561.3445, -68.353
1561.3846, -68.646
1561.4246, -68.345
1561.4646, -68.251
1561.5046, -68.104
1561.5446, -68.050
1561.5846, -67.971
1561.6246, -68.094
1561.6647, -68.020
1561.7047, -68.017
1561.7447, -67.849
1561.7847, -68.052
1561.8247, -68.105
1561.8647, -68.030
1561.9048, -68.147
1561.9448, -68.293
1561.9848, -68.210
1562.0248, -68.451
1562.0648, -68.653
1562.1048, -68.644
1562.1449, -68.771
1562.1849, -69.097
1562.2249, -69.077
1562.2649, -69.367
1562.3049, -69.435
1562.3449, -69.460
1562.3850, -69.779
1562.4250, -70.020
1562.4650, -69.979
1562.5050, -70.020
1562.5450, -70.189
1562.5850, -70.493
1562.6251, -70.493
1562.6651, -70.441
1562.7051, -70.370
1562.7451, -70.752
1562.7851, -70.332
1562.8251, -70.654
1562.8651, -70.402
1562.9052, -70.490
1562.9452, -70.457
1562.9852, -70.388
1563.0252, -70.428
1563.0652, -70.313
1563.1052, -70.363
1563.1453, -70.239
1563.1853, -70.129
1563.2253, -70.489
1563.2653, -70.260
1563.3053, -70.683
1563.3453, -70.211
1563.3854, -70.664
1563.4254, -70.522
1563.4654, -70.495
1563.5054, -70.499
1563.5454, -70.633
1563.5854, -70.736
1563.6255, -70.884
1563.6655, -70.860
1563.7055, -70.989
1563.7455, -71.168
1563.7855, -71.401
1563.8255, -71.614
1563.8655, -71.376
1563.9056, -71.631
1563.9456, -72.406
1563.9856, -72.180
1564.0256, -73.354
1564.0656, -72.975
1564.1056, -73.837
1564.1457, -74.111
1564.1857, -74.189
1564.2257, -74.517
1564.2657, -75.076
1564.3057, -75.051
1564.3457, -76.365
1564.3858, -75.311
1564.4258, -76.883
1564.4658, -76.054
1564.5058, -76.471
1564.5458, -76.669
1564.5858, -76.932
1564.6259, -77.388
1564.6659, -78.048
1564.7059, -77.220
1564.7459, -76.599
1564.7859, -77.948
1564.8259, -77.390
1564.8659, -76.763
1564.9060, -76.687
1564.9460, -77.063
1564.9860, -76.309
1565.0260, -77.558
1565.0660, -76.579
1565.1060, -77.460
1565.1461, -77.333
1565.1861, -76.908
1565.2261, -76.327
1565.2661, -76.631
1565.3061, -75.933
1565.3461, -76.227
1565.3862, -77.443
1565.4262, -77.808
1565.4662, -76.464
1565.5062, -77.274
1565.5462, -75.671
1565.5862, -77.657
1565.6263, -78.186
1565.6663, -75.735
1565.7063, -77.387
1565.7463, -77.534
1565.7863, -77.027
1565.8263, -76.957
1565.8663, -78.947
1565.9064, -78.204
1565.9464, -77.114
1565.9864, -77.354
1566.0264, -78.529
1566.0664, -78.055
1566.1064, -78.378
1566.1465, -79.182
1566.1865, -77.877
1566.2265, -78.347
1566.2665, -79.620
1566.3065, -82.688
1566.3465, -78.255
1566.3866, -79.163
1566.4266, -79.190
1566.4666, -79.866
1566.5066, -80.115
1566.5466, -78.231
1566.5866, -84.994
1566.6267, -78.398
1566.6667, -77.470
1566.7067, -87.244
1566.7467, -80.109
1566.7867, -86.292
1566.8267, -79.116
1566.8667, -82.928
1566.9068, -83.844
1566.9468, -81.333
1566.9868, -84.626
1567.0268, -88.978
1567.0668, -82.619
1567.1068,-210.000
1567.1469, -89.404
1567.1869, -96.714
1567.2269,-210.000
1567.2669, -83.176
1567.3069, -96.964
1567.3469,-210.000
1567.3870, -91.070
1567.4270, -86.276
1567.4670,-210.000
1567.5070,-210.000
1567.5470, -90.143
1567.5870,-210.000
1567.6271,-102.106
1567.6671,-210.000
1567.7071,-210.000
1567.7471,-210.000
1567.7871, -99.960
1567.8271,-210.000
1567.8671,-210.000
1567.9072,-210.000
1567.9472,-210.000
1567.9872,-210.000
1568.0272,-210.000
1568.0672,-210.000
1568.1072, -88.212
1568.1473,-210.000
1568.1873,-210.000
1568.2273,-210.000
1568.2673,-210.000
1568.3073,-210.000
1568.3473,-210.000
1568.3874,-210.000
1568.4274,-210.000
1568.4674,-210.000
1568.5074,-210.000
1568.5474, -89.614
1568.5874,-210.000
1568.6275, -88.594
1568.6675, -86.376
1568.7075, -95.390
1568.7475, -85.847
1568.7875, -84.560
1568.8275,-210.000
1568.8675, -82.368
1568.9076,-210.000
1568.9476,-210.000
1568.9876, -84.641
1569.0276, -92.088
1569.0676, -83.808
1569.1076, -84.276
1569.1477, -83.734
1569.1877, -82.232
1569.2277, -88.511
1569.2677, -86.089
1569.3077, -82.880
1569.3477, -86.778
1569.3878, -84.778
1569.4278,-210.000
1569.4678, -85.072
1569.5078,-210.000
1569.5478, -82.018
1569.5878,-210.000
1569.6279, -89.042
1569.6679,-210.000
1569.7079,-210.000
1569.7479,-210.000
1569.7879,-210.000
1569.8279,-210.000
1569.8679,-210.000
1569.9080, -95.273
1569.9480,-210.000
1569.9880,-210.000
1570.0280,-210.000
1570.0680,-210.000
1570.1080,-210.000
1570.1481,-210.000
1570.1881,-210.000
1570.2281,-210.000
1570.2681,-210.000
1570.3081,-210.000
1570.3481,-210.000
1570.3882,-210.000
1570.4282,-210.000
1570.4682,-210.000
1570.5082,-210.000
1570.5482,-210.000
1570.5882,-210.000
1570.6283,-210.000
1570.6683,-210.000
1570.7083,-210.000
1570.7483,-210.000
1570.7883,-210.000
1570.8283,-210.000
1570.8683,-210.000
1570.9084,-210.000
1570.9484,-210.000
1570.9884,-210.000
1571.0284,-210.000
1571.0684,-210.000
1571.1084,-210.000
1571.1485,-210.000
1571.1885,-210.000
1571.2285,-210.000
1571.2685,-210.000
1571.3085,-210.000
1571.3485,-210.000
1571.3886,-210.000
1571.4286,-210.000
1571.4686,-210.000
1571.5086,-210.000
1571.5486,-210.000
1571.5886,-210.000
1571.6287,-210.000
1571.6687,-210.000
1571.7087,-210.000
1571.7487,-210.000
1571.7887,-210.000
1571.8287,-210.000
1571.8687,-210.000
1571.9088,-210.000
1571.9488,-210.000
1571.9888,-210.000
1572.0288,-210.000
1572.0688,-210.000
1572.1088,-210.000
1572.1489,-210.000
1572.1889,-210.000
1572.2289,-210.000
1572.2689,-210.000
1572.3089,-210.000
1572.3489,-210.000
1572.3890,-210.000
1572.4290,-210.000
1572.4690,-210.000
1572.5090,-210.000
1572.5490,-210.000
1572.5890,-210.000
1572.6291,-210.000
1572.6691,-210.000
1572.7091,-210.000
1572.7491,-210.000
1572.7891,-210.000
1572.8291,-210.000
1572.8691,-210.000
1572.9092,-210.000
1572.9492,-210.000
1572.9892,-210.000
1573.0292,-210.000
1573.0692,-210.000
1573.1092,-210.000
1573.1493,-210.000
1573.1893,-210.000
1573.2293,-210.000
1573.2693,-210.000
1573.3093,-210.000
1573.3493,-210.000
1573.3894,-210.000
1573.4294,-210.000
1573.4694,-210.000
1573.5094,-210.000
1573.5494,-210.000
1573.5894,-210.000
1573.6295,-210.000
1573.6695,-210.000
1573.7095,-210.000
1573.7495,-210.000
1573.7895,-210.000
1573.8295,-210.000
1573.8695,-210.000
1573.9096,-210.000
1573.9496,-210.000
1573.9896,-210.000
1574.0296,-210.000
1574.0696,-210.000
1574.1096,-210.000
1574.1497,-210.000
1574.1897,-210.000
1574.2297,-210.000
1574.2697,-210.000
1574.3097,-210.000
1574.3497,-210.000
1574.3898,-210.000
1574.4298,-210.000
1574.4698,-210.000
1574.5098,-210.000
1574.5498,-210.000
1574.5898,-210.000
1574.6299,-210.000
1574.6699,-210.000
1574.7099,-210.000
1574.7499,-210.000
1574.7899,-210.000
1574.8299,-210.000
1574.8699,-210.000
1574.9100,-210.000
1574.9500,-210.000
1574.9900,-210.000
1575.0300,-210.000
1575.0700,-210.000
1575.1100,-210.000
1575.1501,-210.000
1575.1901,-210.000
1575.2301,-210.000
1575.2701,-210.000
1575.3101,-210.000
1575.3501,-210.000
1575.3902,-210.000
1575.4302,-210.000
1575.4702,-210.000
1575.5102,-210.000
1575.5502,-210.000
1575.5902,-210.000
1575.6303,-210.000
1575.6703,-210.000
1575.7103,-210.000
1575.7503,-210.000
1575.7903,-210.000
1575.8303,-210.000
1575.8703,-210.000
1575.9104,-210.000
1575.9504,-210.000
1575.9904,-210.000
1576.0304,-210.000
1576.0704,-210.000
1576.1104,-210.000
1576.1505,-210.000
1576.1905,-210.000
1576.2305,-210.000
1576.2705,-210.000
1576.3105,-210.000
1576.3505,-210.000
1576.3906,-210.000
1576.4306,-210.000
1576.4706,-210.000
1576.5106,-210.000
1576.5506,-210.000
1576.5906,-210.000
1576.6307,-210.000
1576.6707,-210.000
1576.7107,-210.000
1576.7507,-210.000
1576.7907,-210.000
1576.8307,-210.000
1576.8707,-210.000
1576.9108,-110.260
1576.9508,-210.000
1576.9908,-210.000
1577.0308,-210.000
1577.0708,-210.000
1577.1108,-210.000
1577.1509,-210.000
1577.1909,-210.000
1577.2309,-210.000
1577.2709,-210.000
1577.3109,-210.000
1577.3509,-210.000
1577.3910,-210.000
1577.4310,-210.000
1577.4710,-210.000
1577.5110,-210.000
1577.5510,-210.000
1577.5910,-210.000
1577.6311,-210.000
1577.6711,-210.000
1577.7111,-210.000
1577.7511,-210.000
1577.7911,-210.000
1577.8311,-210.000
1577.8711,-210.000
1577.9112,-210.000
1577.9512,-210.000
1577.9912,-210.000
1578.0312,-210.000
1578.0712,-210.000
1578.1112,-210.000
1578.1513,-210.000
1578.1913,-210.000
1578.2313,-210.000
1578.2713,-210.000
1578.3113,-210.000
1578.3513,-210.000
1578.3914,-210.000
1578.4314,-210.000
1578.4714,-210.000
1578.5114,-210.000
1578.5514,-210.000
1578.5914,-210.000
1578.6315,-210.000
1578.6715,-210.000
1578.7115,-210.000
1578.7515,-210.000
1578.7915,-210.000
1578.8315,-210.000
1578.8715,-210.000
1578.9116,-210.000
1578.9516,-210.000
1578.9916,-210.000
1579.0316,-210.000
1579.0716,-210.000
1579.1116,-210.000
1579.1517,-210.000
1579.1917,-210.000
1579.2317,-210.000
1579.2717,-210.000
1579.3117,-210.000
1579.3517,-210.000
1579.3918,-210.000
1579.4318,-210.000
1579.4718,-210.000
1579.5118,-210.000
1579.5518,-210.000
1579.5918,-210.000
1579.6319,-210.000
1579.6719,-210.000
1579.7119,-210.000
1579.7519,-210.000
1579.7919, -97.573
1579.8319,-210.000
1579.8719,-210.000
1579.9120,-210.000
1579.9520,-210.000
1579.9920,-210.000
1580.0320,-210.000
1580.0720,-210.000
1580.1120,-210.000
1580.1521,-210.000
1580.1921,-210.000
1580.2321,-210.000
1580.2721,-210.000
1580.3121,-210.000
1580.3521,-210.000
1580.3922,-210.000
1580.4322,-210.000
1580.4722,-210.000
1580.5122,-210.000
1580.5522,-210.000
1580.5922,-210.000
1580.6323,-210.000
1580.6723,-210.000
1580.7123,-210.000
1580.7523,-210.000
1580.7923,-210.000
1580.8323,-210.000
1580.8723,-210.000
1580.9124,-210.000
1580.9524,-210.000
1580.9924,-210.000
1581.0324,-210.000
1581.0724,-210.000
1581.1124,-210.000
1581.1525,-210.000
1581.1925,-210.000
1581.2325,-210.000
1581.2725,-210.000
1581.3125,-210.000
1581.3525,-210.000
1581.3926,-210.000
1581.4326,-210.000
1581.4726,-210.000
1581.5126,-210.000
1581.5526,-210.000
1581.5926,-210.000
1581.6327,-210.000
1581.6727,-210.000
1581.7127,-210.000
1581.7527,-210.000
1581.7927,-210.000
1581.8327,-210.000
1581.8727,-210.000
1581.9128,-210.000
1581.9528,-210.000
1581.9928,-210.000
1582.0328,-210.000
1582.0728,-210.000
1582.1128,-210.000
1582.1529,-210.000
1582.1929,-210.000
1582.2329,-210.000
1582.2729,-210.000
1582.3129,-210.000
1582.3529,-210.000
1582.3930,-210.000
1582.4330,-210.000
1582.4730,-210.000
1582.5130,-210.000
1582.5530,-210.000
1582.5930,-210.000
1582.6331,-210.000
1582.6731,-210.000
1582.7131,-210.000
1582.7531,-210.000
1582.7931,-210.000
1582.8331,-210.000
1582.8731,-210.000
1582.9132,-210.000
1582.9532,-210.000
1582.9932,-210.000
1583.0332,-210.000
1583.0732,-210.000
1583.1132,-210.000
1583.1533,-210.000
1583.1933,-210.000
1583.2333,-210.000
1583.2733,-210.000
1583.3133,-210.000
1583.3533,-210.000
1583.3934,-210.000
1583.4334,-210.000
1583.4734,-210.000
1583.5134,-210.000
1583.5534,-210.000
1583.5934,-210.000
1583.6335,-210.000
1583.6735,-210.000
1583.7135,-210.000
1583.7535,-210.000
1583.7935,-210.000
1583.8335,-210.000
1583.8735,-210.000
1583.9136,-210.000
1583.9536,-210.000
1583.9936,-210.000
1584.0336,-210.000
1584.0736,-210.000
1584.1136,-210.000
1584.1537,-210.000
1584.1937,-210.000
1584.2337,-210.000
1584.2737,-210.000
1584.3137,-210.000
1584.3537,-210.000
1584.3938,-210.000
1584.4338,-210.000
1584.4738,-210.000
1584.5138,-210.000
1584.5538,-210.000
1584.5938,-210.000
1584.6339,-210.000
1584.6739,-210.000
1584.7139,-210.000
1584.7539,-210.000
1584.7939,-210.000
1584.8339,-210.000
1584.8739,-210.000
1584.9140,-210.000
1584.9540,-210.000
1584.9940,-210.000
1585.0340,-210.000
1585.0740,-210.000
1585.1140,-210.000
1585.1541,-210.000
1585.1941,-210.000
1585.2341,-210.000
1585.2741,-210.000
1585.3141,-210.000
1585.3541,-210.000
1585.3942,-210.000
1585.4342,-210.000
1585.4742,-210.000
1585.5142,-210.000
1585.5542,-210.000
1585.5942,-210.000
1585.6343,-210.000
1585.6743,-210.000
1585.7143,-210.000
1585.7543,-210.000
1585.7943,-210.000
1585.8343,-210.000
1585.8743,-210.000
1585.9144,-210.000
1585.9544,-210.000
1585.9944,-210.000
1586.0344,-210.000
1586.0744,-210.000
1586.1144,-210.000
1586.1545,-210.000
1586.1945,-210.000
1586.2345,-210.000
1586.2745,-210.000
1586.3145,-210.000
1586.3545,-210.000
1586.3946,-210.000
1586.4346,-210.000
1586.4746,-210.000
1586.5146,-210.000
1586.5546,-210.000
1586.5946,-210.000
1586.6347,-210.000
1586.6747,-210.000
1586.7147,-210.000
1586.7547,-210.000
1586.7947,-210.000
1586.8347,-210.000
1586.8747,-210.000
1586.9148,-210.000
1586.9548,-210.000
1586.9948,-210.000
1587.0348,-210.000
1587.0748,-210.000
1587.1148,-210.000
1587.1549,-210.000
1587.1949,-210.000
1587.2349,-210.000
1587.2749,-210.000
1587.3149,-210.000
1587.3549,-210.000
1587.3950,-210.000
1587.4350,-210.000
1587.4750,-210.000
1587.5150,-210.000
1587.5550,-210.000
1587.5950,-210.000
1587.6351,-210.000
1587.6751,-210.000
1587.7151,-210.000
1587.7551,-210.000
1587.7951,-210.000
1587.8351,-210.000
1587.8752,-210.000
1587.9152,-210.000
1587.9552,-210.000
1587.9952,-210.000
1588.0352,-210.000
1588.0752,-210.000
1588.1152,-210.000
1588.1553,-210.000
1588.1953,-210.000
1588.2353,-210.000
1588.2753,-210.000
1588.3153,-210.000
1588.3553,-210.000
1588.3954,-210.000
1588.4354,-210.000
1588.4754,-210.000
1588.5154,-210.000
1588.5554,-210.000
1588.5954,-210.000
1588.6355,-210.000
1588.6755,-210.000
1588.7155,-210.000
1588.7555,-210.000
1588.7955,-210.000
1588.8355,-210.000
1588.8756,-210.000
1588.9156,-210.000
1588.9556,-210.000
1588.9956,-210.000
1589.0356,-210.000
1589.0756,-210.000
1589.1156,-210.000
1589.1557,-210.000
1589.1957,-210.000
1589.2357,-210.000
1589.2757,-210.000
1589.3157,-210.000
1589.3557,-210.000
1589.3958,-210.000
1589.4358,-210.000
1589.4758,-210.000
1589.5158,-210.000
1589.5558,-210.000
1589.5958,-210.000
1589.6359,-210.000
1589.6759,-210.000
1589.7159,-210.000
1589.7559,-210.000
1589.7959,-210.000
1589.8359,-210.000
1589.8760,-210.000
1589.9160,-210.000
1589.9560,-210.000
1589.9960,-210.000
1590.0360, -95.980
1590.0760,-210.000
1590.1160,-210.000
1590.1561,-210.000
1590.1961,-210.000
1590.2361,-210.000
1590.2761,-210.000
1590.3161,-210.000
1590.3561,-210.000
1590.3962,-210.000
1590.4362,-210.000
1590.4762,-210.000
1590.5162,-210.000
1590.5562,-210.000
1590.5962,-210.000
1590.6363,-210.000
1590.6763,-210.000
1590.7163,-210.000
1590.7563,-210.000
1590.7963,-210.000
1590.8363,-210.000
1590.8764,-210.000
1590.9164,-210.000
1590.9564,-210.000
1590.9964,-210.000
1591.0364,-210.000
1591.0764,-210.000
1591.1164,-210.000
1591.1565,-210.000
1591.1965,-210.000
1591.2365,-210.000
1591.2765,-210.000
1591.3165,-210.000
1591.3565,-210.000
1591.3966,-210.000
1591.4366,-210.000
1591.4766,-210.000
1591.5166,-210.000
1591.5566,-210.000
1591.5966,-210.000
1591.6367,-210.000
1591.6767,-210.000
1591.7167,-210.000
1591.7567,-210.000
1591.7967,-210.000
1591.8367,-210.000
1591.8768,-210.000
1591.9168,-210.000
1591.9568,-210.000
1591.9968,-210.000
1592.0368,-210.000
1592.0768,-210.000
1592.1168,-210.000
1592.1569,-210.000
1592.1969,-210.000
1592.2369,-210.000
1592.2769,-210.000
1592.3169,-210.000
1592.3569,-210.000
1592.3970,-210.000
1592.4370,-210.000
1592.4770,-210.000
1592.5170,-210.000
1592.5570,-210.000
1592.5970,-210.000
1592.6371,-210.000
1592.6771,-210.000
1592.7171,-210.000
1592.7571,-210.000
1592.7971,-210.000
1592.8371,-210.000
1592.8772,-210.000
1592.9172,-210.000
1592.9572,-210.000
1592.9972,-210.000
1593.0372,-210.000
1593.0772,-210.000
1593.1172,-210.000
1593.1573,-210.000
1593.1973,-210.000
1593.2373,-210.000
1593.2773,-210.000
1593.3173,-210.000
1593.3573,-210.000
1593.3974,-210.000
1593.4374,-210.000
1593.4774,-210.000
1593.5174,-210.000
1593.5574,-210.000
1593.5974,-210.000
1593.6375,-210.000
1593.6775,-210.000
1593.7175,-210.000
1593.7575,-210.000
1593.7975,-210.000
1593.8375,-210.000
1593.8776,-210.000
1593.9176,-210.000
1593.9576,-210.000
1593.9976,-210.000
1594.0376,-210.000
1594.0776,-210.000
1594.1176,-210.000
1594.1577,-210.000
1594.1977,-210.000
1594.2377,-210.000
1594.2777,-210.000
1594.3177,-210.000
1594.3577,-210.000
1594.3978,-210.000
1594.4378,-210.000
1594.4778,-210.000
1594.5178,-210.000
1594.5578,-210.000
1594.5978,-210.000
1594.6379,-210.000
1594.6779,-210.000
1594.7179,-210.000
1594.7579,-210.000
1594.7979,-210.000
1594.8379,-210.000
1594.8780,-210.000
1594.9180,-210.000
1594.9580,-210.000
1594.9980,-210.000
1595.0380,-210.000
1595.0780,-210.000
1595.1180,-210.000
1595.1581,-210.000
1595.1981,-210.000
1595.2381,-210.000
1595.2781,-210.000
1595.3181,-210.000
1595.3581,-210.000
1595.3982,-210.000
1595.4382,-210.000
1595.4782,-210.000
1595.5182,-210.000
1595.5582,-210.000
1595.5982,-210.000
1595.6383,-210.000
1595.6783,-210.000
1595.7183,-210.000
1595.7583,-210.000
1595.7983,-210.000
1595.8383,-210.000
1595.8784,-210.000
1595.9184,-210.000
1595.9584,-210.000
1595.9984,-210.000
1596.0384,-210.000
1596.0784,-210.000
1596.1184,-210.000
1596.1585,-210.000
1596.1985,-210.000
1596.2385,-210.000
1596.2785,-210.000
1596.3185,-210.000
1596.3585,-210.000
1596.3986,-210.000
1596.4386,-210.000
1596.4786,-210.000
1596.5186,-210.000
1596.5586,-210.000
1596.5986,-210.000
1596.6387,-210.000
1596.6787,-210.000
1596.7187,-210.000
1596.7587,-210.000
1596.7987,-210.000
1596.8387,-210.000
1596.8788,-210.000
1596.9188,-210.000
1596.9588,-210.000
1596.9988,-210.000
1597.0388,-210.000
1597.0788,-210.000
1597.1188,-210.000
1597.1589,-210.000
1597.1989,-210.000
1597.2389,-210.000
1597.2789,-210.000
1597.3189,-210.000
1597.3589,-210.000
1597.3990,-210.000
1597.4390,-210.000
1597.4790,-210.000
1597.5190,-210.000
1597.5590,-210.000
1597.5990,-210.000
1597.6391,-210.000
1597.6791,-210.000
1597.7191,-210.000
1597.7591,-210.000
1597.7991,-210.000
1597.8391,-210.000
1597.8792,-210.000
1597.9192,-210.000
1597.9592,-210.000
1597.9992,-210.000
1598.0392,-210.000
1598.0792,-210.000
1598.1192,-210.000
1598.1593,-210.000
1598.1993,-210.000
1598.2393,-210.000
1598.2793,-210.000
1598.3193,-210.000
1598.3593,-210.000
1598.3994,-210.000
1598.4394,-210.000
1598.4794,-210.000
1598.5194,-210.000
1598.5594,-210.000
1598.5994,-210.000
1598.6395,-210.000
1598.6795,-210.000
1598.7195,-210.000
1598.7595,-210.000
1598.7995,-210.000
1598.8395,-210.000
1598.8796,-210.000
1598.9196,-210.000
1598.9596,-210.000
1598.9996,-210.000
1599.0396,-210.000
1599.0796,-210.000
1599.1196,-210.000
1599.1597,-210.000
1599.1997,-210.000
1599.2397,-210.000
1599.2797,-210.000
1599.3197,-210.000
1599.3597,-210.000
1599.3998,-210.000
1599.4398,-210.000
1599.4798,-210.000
1599.5198,-210.000
1599.5598,-210.000
1599.5998,-210.000
1599.6399,-210.000
1599.6799,-210.000
1599.7199,-210.000
1599.7599,-210.000
1599.7999,-210.000
1599.8399,-210.000
1599.8800,-210.000
1599.9200,-210.000
1599.9600,-210.000
1600.0000,-210.000
