70BCSV 	
// AQ6370B OPTICAL SPECTRUM ANALYZER //                 
25
"CTRWL",1550.000000
"SPAN", 100.000000
"START WL",1500.000000
"STOP WL",1600.000000
"WLFREQ", 0
"REFL",-58.5
"LSCL", 5.0
"RESLN",0.500
"AVG",   1
"SMPLAUTO",      0
"SMPL",       2500
"SMPLINTVL",0.0400
"HIGH1"
"MEAS"
"LSUNT",0
"NMSKH","OFF"
"RESCOR",0
"RESPARM", 9740
"FREQPARM", 9740






"[TRACE DATA]"
1500.0000,-210.000
1500.0400,-210.000
1500.0800,-210.000
1500.1200,-210.000
1500.1601,-210.000
1500.2001,-210.000
1500.2401, -89.207
1500.2801,-210.000
1500.3201,-210.000
1500.3601,-210.000
1500.4002,-210.000
1500.4402,-210.000
1500.4802,-210.000
1500.5202,-210.000
1500.5602,-210.000
1500.6002,-210.000
1500.6403,-210.000
1500.6803, -94.046
1500.7203,-210.000
1500.7603,-210.000
1500.8003,-210.000
1500.8403,-210.000
1500.8804, -88.401
1500.9204,-210.000
1500.9604,-210.000
1501.0004,-210.000
1501.0404,-210.000
1501.0804,-210.000
1501.1204,-210.000
1501.1605,-210.000
1501.2005,-210.000
1501.2405,-210.000
1501.2805,-210.000
1501.3205,-210.000
1501.3605,-210.000
1501.4006,-210.000
1501.4406,-210.000
1501.4806,-210.000
1501.5206,-210.000
1501.5606,-210.000
1501.6006,-210.000
1501.6407,-210.000
1501.6807,-210.000
1501.7207,-210.000
1501.7607,-210.000
1501.8007,-210.000
1501.8407,-210.000
1501.8808,-210.000
1501.9208,-210.000
1501.9608,-210.000
1502.0008,-210.000
1502.0408,-210.000
1502.0808,-210.000
1502.1208, -95.632
1502.1609,-210.000
1502.2009,-210.000
1502.2409, -90.582
1502.2809,-210.000
1502.3209,-210.000
1502.3609,-210.000
1502.4010,-210.000
1502.4410,-210.000
1502.4810,-210.000
1502.5210, -87.905
1502.5610,-210.000
1502.6010, -82.979
1502.6411,-210.000
1502.6811,-210.000
1502.7211,-210.000
1502.7611,-210.000
1502.8011, -96.481
1502.8411,-210.000
1502.8812,-210.000
1502.9212,-210.000
1502.9612, -88.667
1503.0012, -83.899
1503.0412,-210.000
1503.0812,-210.000
1503.1212,-210.000
1503.1613,-210.000
1503.2013,-210.000
1503.2413,-210.000
1503.2813, -94.539
1503.3213,-210.000
1503.3613,-210.000
1503.4014,-210.000
1503.4414, -91.124
1503.4814,-210.000
1503.5214,-210.000
1503.5614,-210.000
1503.6014,-210.000
1503.6415,-210.000
1503.6815,-210.000
1503.7215,-210.000
1503.7615, -87.525
1503.8015,-210.000
1503.8415,-210.000
1503.8816,-210.000
1503.9216,-210.000
1503.9616,-210.000
1504.0016,-210.000
1504.0416,-210.000
1504.0816,-210.000
1504.1216,-210.000
1504.1617,-210.000
1504.2017, -87.431
1504.2417,-210.000
1504.2817, -87.833
1504.3217,-210.000
1504.3617,-210.000
1504.4018,-210.000
1504.4418,-210.000
1504.4818,-210.000
1504.5218, -96.530
1504.5618,-210.000
1504.6018,-210.000
1504.6419,-210.000
1504.6819,-210.000
1504.7219, -87.063
1504.7619,-210.000
1504.8019,-210.000
1504.8419, -87.797
1504.8820, -93.601
1504.9220,-210.000
1504.9620,-210.000
1505.0020, -86.073
1505.0420,-210.000
1505.0820, -91.029
1505.1220,-210.000
1505.1621,-210.000
1505.2021,-210.000
1505.2421,-210.000
1505.2821,-210.000
1505.3221,-210.000
1505.3621,-210.000
1505.4022, -89.079
1505.4422,-210.000
1505.4822,-210.000
1505.5222, -89.529
1505.5622,-210.000
1505.6022,-210.000
1505.6423, -85.454
1505.6823,-210.000
1505.7223, -85.416
1505.7623,-210.000
1505.8023, -89.624
1505.8423,-210.000
1505.8824,-210.000
1505.9224,-210.000
1505.9624,-210.000
1506.0024,-210.000
1506.0424,-210.000
1506.0824,-210.000
1506.1224, -89.781
1506.1625,-210.000
1506.2025,-210.000
1506.2425,-210.000
1506.2825,-210.000
1506.3225,-210.000
1506.3625,-210.000
1506.4026,-210.000
1506.4426,-210.000
1506.4826, -93.465
1506.5226, -89.501
1506.5626,-210.000
1506.6026,-210.000
1506.6427,-210.000
1506.6827,-210.000
1506.7227,-210.000
1506.7627,-210.000
1506.8027,-210.000
1506.8427, -90.192
1506.8828,-210.000
1506.9228,-210.000
1506.9628, -85.290
1507.0028,-210.000
1507.0428,-210.000
1507.0828,-210.000
1507.1228,-210.000
1507.1629,-210.000
1507.2029,-210.000
1507.2429,-210.000
1507.2829,-210.000
1507.3229,-210.000
1507.3629,-210.000
1507.4030,-210.000
1507.4430, -85.707
1507.4830,-210.000
1507.5230,-210.000
1507.5630, -83.121
1507.6030,-210.000
1507.6431,-210.000
1507.6831,-210.000
1507.7231,-210.000
1507.7631,-210.000
1507.8031,-210.000
1507.8431,-210.000
1507.8832,-210.000
1507.9232,-210.000
1507.9632,-210.000
1508.0032,-210.000
1508.0432,-210.000
1508.0832,-210.000
1508.1232,-210.000
1508.1633,-210.000
1508.2033,-210.000
1508.2433,-210.000
1508.2833, -92.726
1508.3233,-210.000
1508.3633,-210.000
1508.4034,-210.000
1508.4434,-210.000
1508.4834,-210.000
1508.5234,-210.000
1508.5634,-210.000
1508.6034,-210.000
1508.6435,-210.000
1508.6835,-210.000
1508.7235,-210.000
1508.7635, -97.493
1508.8035,-210.000
1508.8435,-210.000
1508.8836,-210.000
1508.9236,-210.000
1508.9636,-210.000
1509.0036,-210.000
1509.0436,-210.000
1509.0836,-210.000
1509.1236,-210.000
1509.1637,-210.000
1509.2037,-210.000
1509.2437,-210.000
1509.2837, -94.805
1509.3237,-210.000
1509.3637,-210.000
1509.4038,-210.000
1509.4438,-210.000
1509.4838,-210.000
1509.5238,-210.000
1509.5638,-210.000
1509.6038,-210.000
1509.6439,-210.000
1509.6839, -88.124
1509.7239,-210.000
1509.7639,-210.000
1509.8039,-210.000
1509.8439, -88.012
1509.8840,-210.000
1509.9240,-210.000
1509.9640,-210.000
1510.0040,-210.000
1510.0440,-210.000
1510.0840,-210.000
1510.1240,-210.000
1510.1641,-210.000
1510.2041,-210.000
1510.2441, -87.528
1510.2841,-210.000
1510.3241, -92.899
1510.3641,-210.000
1510.4042, -93.141
1510.4442,-210.000
1510.4842,-210.000
1510.5242,-210.000
1510.5642, -87.893
1510.6042,-210.000
1510.6443,-210.000
1510.6843,-210.000
1510.7243,-210.000
1510.7643, -91.098
1510.8043,-210.000
1510.8443,-210.000
1510.8844,-210.000
1510.9244,-210.000
1510.9644,-210.000
1511.0044,-210.000
1511.0444,-210.000
1511.0844,-210.000
1511.1244,-210.000
1511.1645,-210.000
1511.2045,-210.000
1511.2445,-210.000
1511.2845,-210.000
1511.3245,-210.000
1511.3645,-210.000
1511.4046,-210.000
1511.4446,-210.000
1511.4846,-210.000
1511.5246, -91.195
1511.5646,-210.000
1511.6046,-210.000
1511.6447,-210.000
1511.6847,-210.000
1511.7247, -91.440
1511.7647,-210.000
1511.8047, -93.567
1511.8447,-210.000
1511.8848,-210.000
1511.9248,-210.000
1511.9648,-210.000
1512.0048, -87.673
1512.0448,-210.000
1512.0848, -92.669
1512.1248,-210.000
1512.1649, -84.403
1512.2049,-210.000
1512.2449,-210.000
1512.2849, -90.891
1512.3249,-210.000
1512.3649,-210.000
1512.4050,-210.000
1512.4450, -85.749
1512.4850,-210.000
1512.5250,-210.000
1512.5650,-210.000
1512.6050,-210.000
1512.6451,-210.000
1512.6851,-210.000
1512.7251,-210.000
1512.7651,-210.000
1512.8051, -96.888
1512.8451,-210.000
1512.8852, -85.300
1512.9252,-210.000
1512.9652,-210.000
1513.0052, -84.779
1513.0452,-210.000
1513.0852,-210.000
1513.1253,-113.355
1513.1653,-210.000
1513.2053,-210.000
1513.2453,-210.000
1513.2853, -94.773
1513.3253,-210.000
1513.3653,-210.000
1513.4054,-210.000
1513.4454,-210.000
1513.4854,-210.000
1513.5254,-210.000
1513.5654,-210.000
1513.6054,-210.000
1513.6455,-210.000
1513.6855, -89.755
1513.7255,-210.000
1513.7655, -99.746
1513.8055,-210.000
1513.8455,-210.000
1513.8856,-210.000
1513.9256,-210.000
1513.9656,-210.000
1514.0056,-210.000
1514.0456,-210.000
1514.0856,-210.000
1514.1257,-210.000
1514.1657,-210.000
1514.2057, -90.961
1514.2457,-210.000
1514.2857,-210.000
1514.3257,-210.000
1514.3657, -88.342
1514.4058,-210.000
1514.4458,-210.000
1514.4858,-210.000
1514.5258,-210.000
1514.5658,-210.000
1514.6058, -99.809
1514.6459,-210.000
1514.6859,-210.000
1514.7259,-210.000
1514.7659,-210.000
1514.8059,-210.000
1514.8459,-210.000
1514.8860, -92.307
1514.9260,-210.000
1514.9660,-210.000
1515.0060,-210.000
1515.0460,-210.000
1515.0860,-210.000
1515.1261,-210.000
1515.1661,-210.000
1515.2061,-210.000
1515.2461,-210.000
1515.2861,-210.000
1515.3261,-210.000
1515.3661,-210.000
1515.4062,-210.000
1515.4462,-210.000
1515.4862,-210.000
1515.5262,-210.000
1515.5662,-210.000
1515.6062, -95.067
1515.6463,-210.000
1515.6863,-210.000
1515.7263,-210.000
1515.7663, -91.577
1515.8063,-210.000
1515.8463, -91.730
1515.8864,-210.000
1515.9264,-210.000
1515.9664,-210.000
1516.0064,-210.000
1516.0464,-210.000
1516.0864,-210.000
1516.1265, -92.875
1516.1665, -93.609
1516.2065,-210.000
1516.2465, -89.896
1516.2865,-210.000
1516.3265,-210.000
1516.3665,-210.000
1516.4066, -90.098
1516.4466,-210.000
1516.4866,-210.000
1516.5266,-210.000
1516.5666,-101.927
1516.6066,-210.000
1516.6467, -93.763
1516.6867,-210.000
1516.7267,-210.000
1516.7667,-210.000
1516.8067,-210.000
1516.8467, -91.966
1516.8868,-210.000
1516.9268,-210.000
1516.9668,-210.000
1517.0068,-210.000
1517.0468,-210.000
1517.0868, -94.672
1517.1269,-210.000
1517.1669,-210.000
1517.2069,-210.000
1517.2469, -92.255
1517.2869,-210.000
1517.3269,-210.000
1517.3669,-210.000
1517.4070, -90.259
1517.4470,-210.000
1517.4870,-210.000
1517.5270,-210.000
1517.5670,-210.000
1517.6070,-210.000
1517.6471,-210.000
1517.6871,-210.000
1517.7271,-210.000
1517.7671, -98.910
1517.8071,-210.000
1517.8471, -87.903
1517.8872,-210.000
1517.9272,-210.000
1517.9672,-210.000
1518.0072, -84.186
1518.0472,-210.000
1518.0872,-210.000
1518.1273,-210.000
1518.1673,-210.000
1518.2073,-210.000
1518.2473,-210.000
1518.2873, -91.259
1518.3273,-210.000
1518.3673,-210.000
1518.4074,-210.000
1518.4474,-210.000
1518.4874,-210.000
1518.5274,-210.000
1518.5674, -89.748
1518.6074,-210.000
1518.6475,-210.000
1518.6875,-210.000
1518.7275,-210.000
1518.7675,-210.000
1518.8075,-210.000
1518.8475,-210.000
1518.8876, -88.382
1518.9276,-210.000
1518.9676,-210.000
1519.0076,-210.000
1519.0476,-210.000
1519.0876,-210.000
1519.1277, -89.353
1519.1677,-210.000
1519.2077, -91.701
1519.2477,-210.000
1519.2877, -88.802
1519.3277,-210.000
1519.3677,-210.000
1519.4078,-210.000
1519.4478, -87.214
1519.4878, -92.237
1519.5278, -91.149
1519.5678,-210.000
1519.6078,-210.000
1519.6479, -89.086
1519.6879,-210.000
1519.7279,-210.000
1519.7679,-210.000
1519.8079,-210.000
1519.8479,-103.383
1519.8880,-210.000
1519.9280,-210.000
1519.9680,-210.000
1520.0080,-210.000
1520.0480,-210.000
1520.0880, -85.931
1520.1281,-210.000
1520.1681, -91.734
1520.2081,-210.000
1520.2481,-210.000
1520.2881, -88.121
1520.3281,-210.000
1520.3681,-210.000
1520.4082,-210.000
1520.4482,-210.000
1520.4882,-210.000
1520.5282,-210.000
1520.5682,-210.000
1520.6082,-210.000
1520.6483, -84.931
1520.6883,-210.000
1520.7283,-100.471
1520.7683, -89.189
1520.8083, -89.610
1520.8483, -93.606
1520.8884,-210.000
1520.9284, -84.460
1520.9684,-210.000
1521.0084, -86.473
1521.0484,-210.000
1521.0884,-210.000
1521.1285, -90.178
1521.1685,-210.000
1521.2085, -87.149
1521.2485,-210.000
1521.2885, -84.559
1521.3285, -86.176
1521.3685,-210.000
1521.4086,-210.000
1521.4486,-210.000
1521.4886,-210.000
1521.5286,-210.000
1521.5686,-101.307
1521.6086, -88.075
1521.6487, -93.932
1521.6887,-210.000
1521.7287, -88.315
1521.7687,-210.000
1521.8087, -84.234
1521.8487, -90.696
1521.8888,-210.000
1521.9288, -94.655
1521.9688,-210.000
1522.0088, -87.350
1522.0488,-210.000
1522.0888, -84.456
1522.1289,-210.000
1522.1689,-210.000
1522.2089, -90.743
1522.2489, -86.895
1522.2889,-210.000
1522.3289, -96.601
1522.3689, -84.900
1522.4090, -86.879
1522.4490, -86.680
1522.4890, -83.524
1522.5290, -95.248
1522.5690,-210.000
1522.6090, -84.281
1522.6491, -86.611
1522.6891, -94.004
1522.7291, -82.697
1522.7691, -83.272
1522.8091, -84.912
1522.8491, -87.803
1522.8892, -84.470
1522.9292, -84.531
1522.9692, -82.103
1523.0092, -83.856
1523.0492, -82.555
1523.0892, -84.823
1523.1293, -82.617
1523.1693, -80.829
1523.2093, -82.920
1523.2493, -97.590
1523.2893, -79.444
1523.3293, -82.468
1523.3693, -83.804
1523.4094, -82.938
1523.4494, -80.294
1523.4894, -81.765
1523.5294, -81.237
1523.5694, -79.596
1523.6094, -79.089
1523.6495, -80.728
1523.6895, -81.490
1523.7295, -77.965
1523.7695, -80.126
1523.8095, -79.320
1523.8495, -79.095
1523.8896, -80.123
1523.9296, -80.508
1523.9696, -78.467
1524.0096, -80.387
1524.0496, -81.481
1524.0896, -78.247
1524.1297, -77.983
1524.1697, -78.972
1524.2097, -79.698
1524.2497, -79.386
1524.2897, -79.008
1524.3297, -78.569
1524.3697, -79.992
1524.4098, -77.577
1524.4498, -78.267
1524.4898, -80.279
1524.5298, -78.163
1524.5698, -79.235
1524.6098, -79.244
1524.6499, -81.371
1524.6899, -79.690
1524.7299, -79.856
1524.7699, -83.286
1524.8099, -79.051
1524.8499, -81.774
1524.8900, -79.719
1524.9300, -79.842
1524.9700, -84.690
1525.0100, -80.643
1525.0500, -81.182
1525.0900, -81.192
1525.1301, -80.063
1525.1701, -81.100
1525.2101, -81.049
1525.2501, -80.343
1525.2901, -78.865
1525.3301, -80.062
1525.3701, -81.656
1525.4102, -79.757
1525.4502, -79.085
1525.4902, -79.603
1525.5302, -79.979
1525.5702, -76.895
1525.6102, -78.119
1525.6503, -78.502
1525.6903, -77.327
1525.7303, -77.553
1525.7703, -77.676
1525.8103, -78.014
1525.8503, -76.488
1525.8904, -77.364
1525.9304, -77.761
1525.9704, -76.961
1526.0104, -77.511
1526.0504, -76.169
1526.0904, -78.611
1526.1305, -75.906
1526.1705, -77.523
1526.2105, -78.148
1526.2505, -76.898
1526.2905, -77.368
1526.3305, -76.958
1526.3705, -78.052
1526.4106, -77.335
1526.4506, -76.708
1526.4906, -77.294
1526.5306, -77.316
1526.5706, -77.795
1526.6106, -77.208
1526.6507, -77.941
1526.6907, -79.129
1526.7307, -77.064
1526.7707, -78.791
1526.8107, -78.984
1526.8507, -77.871
1526.8908, -78.394
1526.9308, -78.446
1526.9708, -78.821
1527.0108, -78.015
1527.0508, -78.751
1527.0908, -77.049
1527.1309, -76.401
1527.1709, -76.413
1527.2109, -76.525
1527.2509, -75.626
1527.2909, -74.858
1527.3309, -74.211
1527.3709, -73.888
1527.4110, -73.448
1527.4510, -72.368
1527.4910, -72.244
1527.5310, -71.726
1527.5710, -70.815
1527.6110, -70.728
1527.6511, -70.298
1527.6911, -69.924
1527.7311, -69.671
1527.7711, -68.879
1527.8111, -68.532
1527.8511, -68.404
1527.8912, -67.971
1527.9312, -67.622
1527.9712, -67.262
1528.0112, -66.972
1528.0512, -66.746
1528.0912, -66.338
1528.1313, -66.181
1528.1713, -65.886
1528.2113, -65.695
1528.2513, -65.520
1528.2913, -65.343
1528.3313, -65.251
1528.3713, -65.096
1528.4114, -64.903
1528.4514, -64.868
1528.4914, -64.706
1528.5314, -64.604
1528.5714, -64.515
1528.6114, -64.411
1528.6515, -64.298
1528.6915, -64.222
1528.7315, -64.104
1528.7715, -63.984
1528.8115, -63.944
1528.8515, -63.824
1528.8916, -63.762
1528.9316, -63.631
1528.9716, -63.572
1529.0116, -63.497
1529.0516, -63.425
1529.0916, -63.401
1529.1317, -63.317
1529.1717, -63.319
1529.2117, -63.318
1529.2517, -63.274
1529.2917, -63.252
1529.3317, -63.308
1529.3717, -63.324
1529.4118, -63.339
1529.4518, -63.410
1529.4918, -63.412
1529.5318, -63.484
1529.5718, -63.560
1529.6118, -63.607
1529.6519, -63.709
1529.6919, -63.773
1529.7319, -63.858
1529.7719, -63.918
1529.8119, -64.025
1529.8519, -64.087
1529.8920, -64.267
1529.9320, -64.370
1529.9720, -64.464
1530.0120, -64.651
1530.0520, -64.759
1530.0920, -64.893
1530.1321, -65.011
1530.1721, -65.126
1530.2121, -65.299
1530.2521, -65.600
1530.2921, -65.678
1530.3321, -65.922
1530.3721, -66.131
1530.4122, -66.403
1530.4522, -66.484
1530.4922, -66.728
1530.5322, -67.017
1530.5722, -67.348
1530.6122, -67.451
1530.6523, -67.704
1530.6923, -67.872
1530.7323, -68.015
1530.7723, -68.157
1530.8123, -68.280
1530.8523, -68.348
1530.8924, -68.274
1530.9324, -68.099
1530.9724, -67.846
1531.0124, -67.793
1531.0524, -67.462
1531.0924, -67.183
1531.1325, -66.868
1531.1725, -66.492
1531.2125, -66.111
1531.2525, -65.809
1531.2925, -65.421
1531.3325, -65.001
1531.3725, -64.611
1531.4126, -64.203
1531.4526, -63.832
1531.4926, -63.444
1531.5326, -63.126
1531.5726, -62.731
1531.6126, -62.403
1531.6527, -62.136
1531.6927, -61.819
1531.7327, -61.603
1531.7727, -61.368
1531.8127, -61.188
1531.8527, -61.000
1531.8928, -60.848
1531.9328, -60.670
1531.9728, -60.506
1532.0128, -60.369
1532.0528, -60.242
1532.0928, -60.142
1532.1329, -60.035
1532.1729, -59.938
1532.2129, -59.864
1532.2529, -59.811
1532.2929, -59.773
1532.3329, -59.768
1532.3729, -59.753
1532.4130, -59.739
1532.4530, -59.756
1532.4930, -59.764
1532.5330, -59.788
1532.5730, -59.800
1532.6130, -59.804
1532.6531, -59.819
1532.6931, -59.817
1532.7331, -59.818
1532.7731, -59.821
1532.8131, -59.849
1532.8531, -59.834
1532.8932, -59.844
1532.9332, -59.869
1532.9732, -59.861
1533.0132, -59.881
1533.0532, -59.898
1533.0932, -59.878
1533.1333, -59.897
1533.1733, -59.899
1533.2133, -59.881
1533.2533, -59.874
1533.2933, -59.863
1533.3333, -59.881
1533.3733, -59.886
1533.4134, -59.907
1533.4534, -59.950
1533.4934, -59.972
1533.5334, -60.036
1533.5734, -60.104
1533.6134, -60.152
1533.6535, -60.225
1533.6935, -60.330
1533.7335, -60.415
1533.7735, -60.576
1533.8135, -60.665
1533.8535, -60.798
1533.8936, -60.968
1533.9336, -61.083
1533.9736, -61.229
1534.0136, -61.364
1534.0536, -61.496
1534.0936, -61.621
1534.1337, -61.831
1534.1737, -61.957
1534.2137, -62.108
1534.2537, -62.299
1534.2937, -62.430
1534.3337, -62.694
1534.3737, -62.820
1534.4138, -63.089
1534.4538, -63.330
1534.4938, -63.515
1534.5338, -63.819
1534.5738, -64.033
1534.6138, -64.281
1534.6539, -64.569
1534.6939, -64.799
1534.7339, -65.105
1534.7739, -65.482
1534.8139, -65.638
1534.8539, -65.890
1534.8940, -66.151
1534.9340, -66.263
1534.9740, -66.345
1535.0140, -66.375
1535.0540, -66.448
1535.0940, -66.449
1535.1341, -66.269
1535.1741, -66.339
1535.2141, -66.191
1535.2541, -66.050
1535.2941, -65.956
1535.3341, -65.866
1535.3741, -65.823
1535.4142, -65.653
1535.4542, -65.621
1535.4942, -65.534
1535.5342, -65.461
1535.5742, -65.372
1535.6142, -65.432
1535.6543, -65.328
1535.6943, -65.452
1535.7343, -65.430
1535.7743, -65.467
1535.8143, -65.508
1535.8543, -65.557
1535.8944, -65.633
1535.9344, -65.710
1535.9744, -65.834
1536.0144, -65.913
1536.0544, -66.020
1536.0944, -66.097
1536.1345, -66.168
1536.1745, -66.129
1536.2145, -66.325
1536.2545, -66.168
1536.2945, -66.350
1536.3345, -66.233
1536.3745, -66.238
1536.4146, -66.182
1536.4546, -66.149
1536.4946, -66.106
1536.5346, -66.165
1536.5746, -66.103
1536.6146, -66.049
1536.6547, -65.966
1536.6947, -65.959
1536.7347, -66.051
1536.7747, -65.974
1536.8147, -65.892
1536.8547, -65.912
1536.8948, -65.931
1536.9348, -65.791
1536.9748, -66.013
1537.0148, -65.846
1537.0548, -65.930
1537.0948, -65.913
1537.1349, -65.878
1537.1749, -65.975
1537.2149, -65.871
1537.2549, -65.879
1537.2949, -65.876
1537.3349, -65.978
1537.3749, -65.862
1537.4150, -65.948
1537.4550, -65.951
1537.4950, -65.975
1537.5350, -65.932
1537.5750, -66.067
1537.6150, -66.172
1537.6551, -66.191
1537.6951, -66.315
1537.7351, -66.358
1537.7751, -66.590
1537.8151, -66.629
1537.8551, -66.851
1537.8952, -66.993
1537.9352, -67.120
1537.9752, -67.310
1538.0152, -67.478
1538.0552, -67.681
1538.0952, -67.956
1538.1353, -68.023
1538.1753, -68.389
1538.2153, -68.665
1538.2553, -68.753
1538.2953, -69.063
1538.3353, -69.411
1538.3754, -69.555
1538.4154, -69.550
1538.4554, -70.182
1538.4954, -70.249
1538.5354, -70.541
1538.5754, -70.744
1538.6154, -70.870
1538.6555, -71.498
1538.6955, -71.690
1538.7355, -72.143
1538.7755, -72.275
1538.8155, -72.880
1538.8555, -73.124
1538.8956, -73.916
1538.9356, -74.074
1538.9756, -74.621
1539.0156, -74.556
1539.0556, -75.542
1539.0956, -75.551
1539.1357, -75.885
1539.1757, -75.945
1539.2157, -75.906
1539.2557, -75.826
1539.2957, -75.489
1539.3357, -75.001
1539.3758, -75.155
1539.4158, -74.408
1539.4558, -74.080
1539.4958, -73.586
1539.5358, -73.320
1539.5758, -72.690
1539.6158, -72.383
1539.6559, -71.716
1539.6959, -71.543
1539.7359, -71.251
1539.7759, -70.993
1539.8159, -70.831
1539.8559, -70.546
1539.8960, -70.627
1539.9360, -70.156
1539.9760, -70.110
1540.0160, -69.896
1540.0560, -69.857
1540.0960, -69.777
1540.1361, -69.929
1540.1761, -69.915
1540.2161, -69.612
1540.2561, -69.653
1540.2961, -69.907
1540.3361, -69.994
1540.3762, -69.723
1540.4162, -70.122
1540.4562, -70.384
1540.4962, -70.311
1540.5362, -70.183
1540.5762, -70.619
1540.6162, -70.704
1540.6563, -70.727
1540.6963, -70.824
1540.7363, -71.393
1540.7763, -71.379
1540.8163, -71.730
1540.8563, -71.758
1540.8964, -71.768
1540.9364, -72.276
1540.9764, -72.302
1541.0164, -72.570
1541.0564, -72.495
1541.0964, -72.910
1541.1365, -72.902
1541.1765, -73.604
1541.2165, -73.101
1541.2565, -73.179
1541.2965, -73.788
1541.3365, -73.811
1541.3766, -73.998
1541.4166, -73.794
1541.4566, -74.203
1541.4966, -74.318
1541.5366, -73.791
1541.5766, -74.977
1541.6166, -73.824
1541.6567, -73.702
1541.6967, -73.944
1541.7367, -73.601
1541.7767, -73.962
1541.8167, -73.468
1541.8567, -73.733
1541.8968, -72.791
1541.9368, -72.512
1541.9768, -72.667
1542.0168, -72.257
1542.0568, -71.902
1542.0968, -71.542
1542.1369, -71.308
1542.1769, -71.395
1542.2169, -71.030
1542.2569, -70.442
1542.2969, -70.645
1542.3369, -70.180
1542.3770, -70.114
1542.4170, -69.667
1542.4570, -69.483
1542.4970, -69.214
1542.5370, -69.239
1542.5770, -68.908
1542.6170, -68.741
1542.6571, -68.711
1542.6971, -68.551
1542.7371, -68.253
1542.7771, -68.110
1542.8171, -68.085
1542.8571, -67.887
1542.8972, -67.637
1542.9372, -67.550
1542.9772, -67.502
1543.0172, -67.350
1543.0572, -67.269
1543.0972, -67.227
1543.1373, -67.256
1543.1773, -67.324
1543.2173, -67.221
1543.2573, -67.281
1543.2973, -67.290
1543.3373, -67.232
1543.3774, -67.463
1543.4174, -67.435
1543.4574, -67.356
1543.4974, -67.560
1543.5374, -67.628
1543.5774, -67.578
1543.6174, -67.829
1543.6575, -67.957
1543.6975, -67.756
1543.7375, -67.862
1543.7775, -67.850
1543.8175, -67.817
1543.8575, -67.941
1543.8976, -67.818
1543.9376, -67.782
1543.9776, -67.733
1544.0176, -67.703
1544.0576, -67.692
1544.0976, -67.709
1544.1377, -67.741
1544.1777, -67.604
1544.2177, -67.794
1544.2577, -67.778
1544.2977, -67.604
1544.3377, -67.531
1544.3778, -67.503
1544.4178, -67.502
1544.4578, -67.249
1544.4978, -67.169
1544.5378, -66.938
1544.5778, -66.842
1544.6178, -66.601
1544.6579, -66.370
1544.6979, -66.154
1544.7379, -65.969
1544.7779, -65.723
1544.8179, -65.456
1544.8579, -65.214
1544.8980, -65.007
1544.9380, -64.752
1544.9780, -64.433
1545.0180, -64.235
1545.0580, -64.078
1545.0980, -63.875
1545.1381, -63.723
1545.1781, -63.599
1545.2181, -63.479
1545.2581, -63.421
1545.2981, -63.372
1545.3381, -63.264
1545.3782, -63.247
1545.4182, -63.193
1545.4582, -63.241
1545.4982, -63.216
1545.5382, -63.271
1545.5782, -63.284
1545.6182, -63.339
1545.6583, -63.377
1545.6983, -63.426
1545.7383, -63.464
1545.7783, -63.541
1545.8183, -63.627
1545.8583, -63.738
1545.8984, -63.802
1545.9384, -63.871
1545.9784, -63.975
1546.0184, -64.129
1546.0584, -64.144
1546.0984, -64.289
1546.1385, -64.396
1546.1785, -64.520
1546.2185, -64.618
1546.2585, -64.697
1546.2985, -64.789
1546.3385, -64.945
1546.3786, -65.068
1546.4186, -65.181
1546.4586, -65.285
1546.4986, -65.462
1546.5386, -65.519
1546.5786, -65.677
1546.6186, -65.722
1546.6587, -65.850
1546.6987, -65.851
1546.7387, -66.005
1546.7787, -65.897
1546.8187, -66.048
1546.8587, -66.021
1546.8988, -66.061
1546.9388, -66.011
1546.9788, -66.048
1547.0188, -66.190
1547.0588, -66.129
1547.0988, -66.191
1547.1389, -66.178
1547.1789, -66.156
1547.2189, -66.183
1547.2589, -66.207
1547.2989, -66.225
1547.3389, -66.233
1547.3790, -66.340
1547.4190, -66.304
1547.4590, -66.434
1547.4990, -66.329
1547.5390, -66.467
1547.5790, -66.485
1547.6190, -66.640
1547.6591, -66.612
1547.6991, -66.722
1547.7391, -66.967
1547.7791, -67.054
1547.8191, -67.170
1547.8591, -67.391
1547.8992, -67.537
1547.9392, -67.742
1547.9792, -68.044
1548.0192, -68.234
1548.0592, -68.596
1548.0992, -68.920
1548.1393, -69.194
1548.1793, -69.373
1548.2193, -69.778
1548.2593, -70.220
1548.2993, -70.651
1548.3393, -71.127
1548.3794, -71.845
1548.4194, -72.225
1548.4594, -72.964
1548.4994, -72.881
1548.5394, -73.524
1548.5794, -74.414
1548.6194, -75.123
1548.6595, -75.771
1548.6995, -76.169
1548.7395, -76.899
1548.7795, -77.530
1548.8195, -79.112
1548.8595, -77.954
1548.8996, -78.971
1548.9396, -78.073
1548.9796, -77.806
1549.0196, -77.615
1549.0596, -77.398
1549.0996, -75.857
1549.1397, -74.729
1549.1797, -75.253
1549.2197, -74.598
1549.2597, -73.474
1549.2997, -73.732
1549.3397, -72.697
1549.3798, -72.539
1549.4198, -71.727
1549.4598, -71.396
1549.4998, -71.222
1549.5398, -70.521
1549.5798, -70.308
1549.6198, -69.759
1549.6599, -69.715
1549.6999, -69.373
1549.7399, -68.963
1549.7799, -68.600
1549.8199, -68.516
1549.8599, -68.181
1549.9000, -67.865
1549.9400, -67.752
1549.9800, -67.407
1550.0200, -67.257
1550.0600, -67.103
1550.1000, -66.811
1550.1401, -66.818
1550.1801, -66.535
1550.2201, -66.379
1550.2601, -66.331
1550.3001, -66.131
1550.3401, -66.028
1550.3802, -66.017
1550.4202, -65.938
1550.4602, -65.962
1550.5002, -65.747
1550.5402, -65.803
1550.5802, -65.743
1550.6202, -65.679
1550.6603, -65.734
1550.7003, -65.670
1550.7403, -65.653
1550.7803, -65.658
1550.8203, -65.659
1550.8603, -65.688
1550.9004, -65.684
1550.9404, -65.673
1550.9804, -65.724
1551.0204, -65.732
1551.0604, -65.881
1551.1004, -65.902
1551.1405, -65.962
1551.1805, -66.158
1551.2205, -66.192
1551.2605, -66.342
1551.3005, -66.457
1551.3405, -66.570
1551.3806, -66.717
1551.4206, -66.755
1551.4606, -67.020
1551.5006, -67.201
1551.5406, -67.324
1551.5806, -67.467
1551.6206, -67.674
1551.6607, -67.908
1551.7007, -68.220
1551.7407, -68.382
1551.7807, -68.787
1551.8207, -69.102
1551.8607, -69.279
1551.9008, -69.554
1551.9408, -69.832
1551.9808, -70.310
1552.0208, -70.488
1552.0608, -70.795
1552.1008, -71.242
1552.1409, -71.061
1552.1809, -71.379
1552.2209, -71.937
1552.2609, -71.911
1552.3009, -71.942
1552.3409, -72.091
1552.3810, -72.302
1552.4210, -72.769
1552.4610, -72.609
1552.5010, -72.995
1552.5410, -72.453
1552.5810, -72.937
1552.6210, -72.638
1552.6611, -72.988
1552.7011, -72.632
1552.7411, -73.089
1552.7811, -73.030
1552.8211, -72.937
1552.8611, -72.718
1552.9012, -72.509
1552.9412, -72.863
1552.9812, -72.673
1553.0212, -72.689
1553.0612, -72.605
1553.1012, -72.566
1553.1413, -72.612
1553.1813, -72.657
1553.2213, -72.834
1553.2613, -72.520
1553.3013, -73.069
1553.3413, -73.099
1553.3814, -72.777
1553.4214, -72.832
1553.4614, -73.030
1553.5014, -72.948
1553.5414, -73.254
1553.5814, -73.053
1553.6214, -73.245
1553.6615, -73.092
1553.7015, -72.837
1553.7415, -73.293
1553.7815, -73.098
1553.8215, -73.726
1553.8615, -73.478
1553.9016, -73.170
1553.9416, -73.246
1553.9816, -73.528
1554.0216, -73.666
1554.0616, -73.322
1554.1016, -73.579
1554.1417, -73.896
1554.1817, -73.305
1554.2217, -73.800
1554.2617, -73.089
1554.3017, -73.640
1554.3417, -73.216
1554.3818, -73.276
1554.4218, -72.696
1554.4618, -72.506
1554.5018, -72.360
1554.5418, -72.380
1554.5818, -72.044
1554.6218, -71.412
1554.6619, -71.239
1554.7019, -71.199
1554.7419, -70.749
1554.7819, -70.477
1554.8219, -70.110
1554.8619, -70.090
1554.9020, -69.588
1554.9420, -69.456
1554.9820, -69.464
1555.0220, -69.169
1555.0620, -68.952
1555.1020, -68.714
1555.1421, -68.515
1555.1821, -68.478
1555.2221, -68.311
1555.2621, -67.989
1555.3021, -67.869
1555.3421, -67.707
1555.3822, -67.632
1555.4222, -67.665
1555.4622, -67.380
1555.5022, -67.322
1555.5422, -67.229
1555.5822, -67.194
1555.6222, -67.093
1555.6623, -67.045
1555.7023, -66.998
1555.7423, -66.876
1555.7823, -66.879
1555.8223, -66.828
1555.8623, -66.713
1555.9024, -66.790
1555.9424, -66.861
1555.9824, -66.767
1556.0224, -66.782
1556.0624, -66.941
1556.1024, -66.853
1556.1425, -66.943
1556.1825, -67.101
1556.2225, -67.175
1556.2625, -67.219
1556.3025, -67.350
1556.3425, -67.455
1556.3826, -67.591
1556.4226, -67.903
1556.4626, -67.962
1556.5026, -68.408
1556.5426, -68.562
1556.5826, -68.696
1556.6226, -69.014
1556.6627, -69.342
1556.7027, -69.684
1556.7427, -69.938
1556.7827, -70.171
1556.8227, -70.542
1556.8627, -71.233
1556.9028, -71.151
1556.9428, -71.751
1556.9828, -72.626
1557.0228, -72.577
1557.0628, -72.916
1557.1028, -73.384
1557.1429, -73.560
1557.1829, -74.634
1557.2229, -74.790
1557.2629, -75.275
1557.3029, -75.873
1557.3429, -75.297
1557.3830, -76.624
1557.4230, -76.625
1557.4630, -75.070
1557.5030, -76.291
1557.5430, -75.766
1557.5830, -75.368
1557.6230, -74.766
1557.6631, -75.263
1557.7031, -74.421
1557.7431, -74.391
1557.7831, -74.152
1557.8231, -73.604
1557.8631, -73.063
1557.9032, -73.133
1557.9432, -72.590
1557.9832, -72.599
1558.0232, -72.253
1558.0632, -71.798
1558.1032, -71.574
1558.1433, -71.401
1558.1833, -71.181
1558.2233, -71.076
1558.2633, -70.919
1558.3033, -70.736
1558.3433, -70.403
1558.3834, -70.540
1558.4234, -70.048
1558.4634, -69.905
1558.5034, -69.779
1558.5434, -69.578
1558.5834, -69.355
1558.6234, -69.101
1558.6635, -68.971
1558.7035, -68.541
1558.7435, -68.590
1558.7835, -68.304
1558.8235, -68.174
1558.8635, -67.984
1558.9036, -67.663
1558.9436, -67.628
1558.9836, -67.409
1559.0236, -67.281
1559.0636, -66.986
1559.1036, -66.902
1559.1437, -66.861
1559.1837, -66.614
1559.2237, -66.468
1559.2637, -66.385
1559.3037, -66.273
1559.3437, -66.206
1559.3838, -66.171
1559.4238, -65.974
1559.4638, -65.934
1559.5038, -65.868
1559.5438, -65.913
1559.5838, -65.930
1559.6238, -65.848
1559.6639, -65.754
1559.7039, -65.857
1559.7439, -65.851
1559.7839, -65.787
1559.8239, -65.884
1559.8639, -65.926
1559.9040, -65.907
1559.9440, -65.942
1559.9840, -65.941
1560.0240, -66.000
1560.0640, -66.014
1560.1040, -66.031
1560.1441, -66.026
1560.1841, -66.078
1560.2241, -66.141
1560.2641, -66.252
1560.3041, -66.241
1560.3441, -66.335
1560.3842, -66.353
1560.4242, -66.483
1560.4642, -66.457
1560.5042, -66.592
1560.5442, -66.615
1560.5842, -66.664
1560.6242, -66.742
1560.6643, -66.786
1560.7043, -66.965
1560.7443, -66.823
1560.7843, -66.955
1560.8243, -66.981
1560.8643, -67.060
1560.9044, -67.123
1560.9444, -67.159
1560.9844, -67.236
1561.0244, -67.223
1561.0644, -67.294
1561.1044, -67.461
1561.1445, -67.377
1561.1845, -67.522
1561.2245, -67.402
1561.2645, -67.672
1561.3045, -67.647
1561.3445, -67.827
1561.3846, -67.843
1561.4246, -68.174
1561.4646, -67.972
1561.5046, -68.224
1561.5446, -68.407
1561.5846, -68.479
1561.6246, -68.629
1561.6647, -68.785
1561.7047, -69.034
1561.7447, -68.960
1561.7847, -69.028
1561.8247, -69.150
1561.8647, -69.417
1561.9048, -69.354
1561.9448, -69.383
1561.9848, -69.621
1562.0248, -69.619
1562.0648, -69.585
1562.1048, -69.715
1562.1449, -69.773
1562.1849, -69.713
1562.2249, -69.829
1562.2649, -69.991
1562.3049, -69.849
1562.3449, -69.778
1562.3850, -69.963
1562.4250, -69.829
1562.4650, -69.915
1562.5050, -69.960
1562.5450, -70.231
1562.5850, -70.195
1562.6251, -70.366
1562.6651, -70.462
1562.7051, -70.309
1562.7451, -70.598
1562.7851, -70.422
1562.8251, -70.819
1562.8651, -70.820
1562.9052, -71.004
1562.9452, -70.911
1562.9852, -71.033
1563.0252, -71.402
1563.0652, -71.578
1563.1052, -71.723
1563.1453, -71.707
1563.1853, -72.093
1563.2253, -71.827
1563.2653, -72.074
1563.3053, -72.563
1563.3453, -72.668
1563.3854, -72.464
1563.4254, -72.849
1563.4654, -73.279
1563.5054, -73.128
1563.5454, -73.395
1563.5854, -73.237
1563.6255, -73.567
1563.6655, -73.639
1563.7055, -73.830
1563.7455, -73.920
1563.7855, -74.154
1563.8255, -74.367
1563.8655, -73.908
1563.9056, -74.383
1563.9456, -74.575
1563.9856, -74.381
1564.0256, -74.526
1564.0656, -75.094
1564.1056, -75.025
1564.1457, -74.859
1564.1857, -75.223
1564.2257, -75.061
1564.2657, -74.370
1564.3057, -75.121
1564.3457, -74.955
1564.3858, -74.645
1564.4258, -74.657
1564.4658, -75.268
1564.5058, -74.887
1564.5458, -74.814
1564.5858, -74.829
1564.6259, -74.861
1564.6659, -74.362
1564.7059, -74.771
1564.7459, -75.321
1564.7859, -74.766
1564.8259, -74.452
1564.8659, -74.979
1564.9060, -74.644
1564.9460, -74.703
1564.9860, -75.019
1565.0260, -74.316
1565.0660, -75.348
1565.1060, -74.811
1565.1461, -74.814
1565.1861, -75.220
1565.2261, -75.053
1565.2661, -74.589
1565.3061, -74.752
1565.3461, -74.958
1565.3862, -74.935
1565.4262, -75.602
1565.4662, -75.072
1565.5062, -74.455
1565.5462, -75.561
1565.5862, -75.297
1565.6263, -74.994
1565.6663, -75.080
1565.7063, -75.811
1565.7463, -75.923
1565.7863, -76.164
1565.8263, -76.148
1565.8663, -75.975
1565.9064, -77.388
1565.9464, -76.779
1565.9864, -76.554
1566.0264, -76.736
1566.0664, -76.863
1566.1064, -76.634
1566.1465, -76.479
1566.1865, -77.381
1566.2265, -78.069
1566.2665, -78.925
1566.3065, -78.065
1566.3465, -78.000
1566.3866, -78.080
1566.4266, -78.357
1566.4666, -77.229
1566.5066, -80.160
1566.5466, -77.129
1566.5866, -78.888
1566.6267, -79.397
1566.6667, -77.531
1566.7067, -79.756
1566.7467, -79.525
1566.7867, -78.058
1566.8267, -77.891
1566.8667, -79.670
1566.9068, -78.432
1566.9468, -77.894
1566.9868, -77.863
1567.0268, -78.751
1567.0668, -78.590
1567.1068, -79.467
1567.1469, -79.650
1567.1869, -77.983
1567.2269, -80.086
1567.2669, -78.064
1567.3069, -79.291
1567.3469, -78.330
1567.3870, -79.225
1567.4270, -78.252
1567.4670, -78.317
1567.5070, -78.987
1567.5470, -79.053
1567.5870, -78.423
1567.6271, -78.765
1567.6671, -78.624
1567.7071, -79.896
1567.7471, -80.578
1567.7871, -80.046
1567.8271, -79.291
1567.8671, -79.082
1567.9072, -79.316
1567.9472, -83.141
1567.9872, -81.223
1568.0272, -80.351
1568.0672, -80.260
1568.1072, -81.812
1568.1473, -84.018
1568.1873, -80.679
1568.2273, -84.410
1568.2673, -79.894
1568.3073, -82.477
1568.3473, -83.720
1568.3874, -84.236
1568.4274, -83.635
1568.4674, -83.210
1568.5074, -80.730
1568.5474, -82.835
1568.5874, -81.732
1568.6275, -88.080
1568.6675, -84.202
1568.7075, -85.291
1568.7475, -87.540
1568.7875, -81.606
1568.8275, -81.274
1568.8675, -86.188
1568.9076, -86.830
1568.9476, -86.416
1568.9876, -93.878
1569.0276, -81.658
1569.0676, -83.058
1569.1076,-210.000
1569.1477, -82.523
1569.1877, -80.364
1569.2277, -84.940
1569.2677, -85.728
1569.3077, -84.620
1569.3477, -91.663
1569.3878, -82.509
1569.4278, -93.328
1569.4678, -83.878
1569.5078, -82.714
1569.5478,-210.000
1569.5878, -93.153
1569.6279, -84.303
1569.6679, -86.530
1569.7079, -87.139
1569.7479, -87.984
1569.7879,-104.108
1569.8279, -91.818
1569.8679, -87.322
1569.9080, -86.852
1569.9480,-210.000
1569.9880, -87.065
1570.0280, -88.309
1570.0680, -83.019
1570.1080, -86.783
1570.1481, -83.506
1570.1881,-210.000
1570.2281, -88.901
1570.2681,-210.000
1570.3081, -89.887
1570.3481, -90.847
1570.3882, -86.461
1570.4282,-210.000
1570.4682, -84.367
1570.5082, -85.287
1570.5482,-210.000
1570.5882, -88.040
1570.6283, -83.234
1570.6683, -83.354
1570.7083, -85.252
1570.7483, -83.835
1570.7883, -84.278
1570.8283,-210.000
1570.8683, -90.479
1570.9084, -83.140
1570.9484, -85.748
1570.9884,-210.000
1571.0284, -85.496
1571.0684, -83.988
1571.1084, -90.333
1571.1485, -83.073
1571.1885, -84.115
1571.2285,-210.000
1571.2685, -85.356
1571.3085,-210.000
1571.3485, -89.695
1571.3886, -84.391
1571.4286, -89.471
1571.4686, -82.433
1571.5086, -87.991
1571.5486, -99.852
1571.5886,-210.000
1571.6287, -92.276
1571.6687, -81.621
1571.7087, -93.532
1571.7487,-210.000
1571.7887, -84.932
1571.8287,-210.000
1571.8687, -94.120
1571.9088, -84.762
1571.9488,-210.000
1571.9888, -99.646
1572.0288, -84.644
1572.0688,-210.000
1572.1088, -87.952
1572.1489, -85.508
1572.1889, -92.831
1572.2289,-210.000
1572.2689,-210.000
1572.3089, -90.746
1572.3489,-105.649
1572.3890,-210.000
1572.4290, -87.624
1572.4690, -87.370
1572.5090,-210.000
1572.5490,-210.000
1572.5890, -86.879
1572.6291,-210.000
1572.6691, -94.227
1572.7091,-210.000
1572.7491, -98.968
1572.7891,-210.000
1572.8291,-210.000
1572.8691,-210.000
1572.9092, -86.771
1572.9492,-210.000
1572.9892, -94.789
1573.0292,-210.000
1573.0692,-210.000
1573.1092,-210.000
1573.1493, -84.465
1573.1893,-210.000
1573.2293, -97.929
1573.2693,-210.000
1573.3093, -87.332
1573.3493, -83.896
1573.3894,-210.000
1573.4294,-210.000
1573.4694, -87.584
1573.5094,-210.000
1573.5494, -85.100
1573.5894, -86.221
1573.6295, -85.105
1573.6695, -87.734
1573.7095,-210.000
1573.7495,-210.000
1573.7895,-210.000
1573.8295, -88.733
1573.8695, -92.511
1573.9096,-210.000
1573.9496, -83.599
1573.9896,-210.000
1574.0296,-210.000
1574.0696,-210.000
1574.1096, -89.550
1574.1497,-210.000
1574.1897,-210.000
1574.2297,-210.000
1574.2697, -88.177
1574.3097, -91.794
1574.3497,-210.000
1574.3898, -83.546
1574.4298,-210.000
1574.4698,-210.000
1574.5098,-210.000
1574.5498,-210.000
1574.5898, -90.741
1574.6299,-210.000
1574.6699, -95.938
1574.7099,-210.000
1574.7499, -95.025
1574.7899,-210.000
1574.8299,-210.000
1574.8699, -85.852
1574.9100,-210.000
1574.9500,-210.000
1574.9900,-210.000
1575.0300, -86.292
1575.0700,-210.000
1575.1100,-210.000
1575.1501, -89.532
1575.1901,-210.000
1575.2301, -86.867
1575.2701,-210.000
1575.3101,-210.000
1575.3501,-210.000
1575.3902, -98.253
1575.4302,-210.000
1575.4702,-210.000
1575.5102,-210.000
1575.5502,-210.000
1575.5902, -86.094
1575.6303,-210.000
1575.6703,-210.000
1575.7103,-210.000
1575.7503,-210.000
1575.7903, -89.608
1575.8303,-210.000
1575.8703,-107.087
1575.9104,-210.000
1575.9504, -91.024
1575.9904,-210.000
1576.0304, -84.823
1576.0704, -84.318
1576.1104,-210.000
1576.1505, -86.767
1576.1905,-210.000
1576.2305, -88.323
1576.2705, -84.297
1576.3105,-210.000
1576.3505,-210.000
1576.3906, -86.370
1576.4306,-210.000
1576.4706,-210.000
1576.5106,-210.000
1576.5506, -90.302
1576.5906,-210.000
1576.6307, -90.798
1576.6707, -84.890
1576.7107,-210.000
1576.7507, -83.557
1576.7907,-210.000
1576.8307,-210.000
1576.8707, -83.105
1576.9108,-210.000
1576.9508, -94.742
1576.9908,-210.000
1577.0308, -90.887
1577.0708,-210.000
1577.1108,-210.000
1577.1509,-210.000
1577.1909,-210.000
1577.2309,-210.000
1577.2709, -85.859
1577.3109,-210.000
1577.3509,-210.000
1577.3910,-210.000
1577.4310, -84.852
1577.4710,-210.000
1577.5110,-210.000
1577.5510, -84.611
1577.5910,-210.000
1577.6311, -96.126
1577.6711,-210.000
1577.7111,-210.000
1577.7511, -83.430
1577.7911,-210.000
1577.8311, -93.692
1577.8711,-210.000
1577.9112,-210.000
1577.9512,-210.000
1577.9912, -82.914
1578.0312,-210.000
1578.0712,-210.000
1578.1112, -87.214
1578.1513,-210.000
1578.1913,-210.000
1578.2313, -83.182
1578.2713,-210.000
1578.3113,-210.000
1578.3513, -88.779
1578.3914, -87.280
1578.4314,-210.000
1578.4714,-210.000
1578.5114,-210.000
1578.5514,-210.000
1578.5914,-210.000
1578.6315,-210.000
1578.6715,-210.000
1578.7115, -87.125
1578.7515,-210.000
1578.7915, -83.931
1578.8315,-210.000
1578.8715, -88.592
1578.9116,-210.000
1578.9516,-210.000
1578.9916, -90.131
1579.0316,-210.000
1579.0716,-210.000
1579.1116,-210.000
1579.1517, -92.773
1579.1917,-210.000
1579.2317, -85.167
1579.2717,-210.000
1579.3117,-210.000
1579.3517, -85.014
1579.3918, -89.647
1579.4318, -96.540
1579.4718,-210.000
1579.5118,-210.000
1579.5518, -82.441
1579.5918,-210.000
1579.6319,-210.000
1579.6719,-210.000
1579.7119, -84.050
1579.7519, -88.960
1579.7919,-210.000
1579.8319,-210.000
1579.8719, -85.634
1579.9120,-210.000
1579.9520,-210.000
1579.9920,-210.000
1580.0320, -87.189
1580.0720, -91.306
1580.1120,-210.000
1580.1521, -87.611
1580.1921, -84.971
1580.2321,-210.000
1580.2721,-210.000
1580.3121,-210.000
1580.3521,-210.000
1580.3922, -88.330
1580.4322,-210.000
1580.4722,-210.000
1580.5122, -91.350
1580.5522,-210.000
1580.5922,-210.000
1580.6323,-210.000
1580.6723,-210.000
1580.7123,-103.901
1580.7523,-210.000
1580.7923,-210.000
1580.8323,-210.000
1580.8723,-210.000
1580.9124, -90.261
1580.9524,-210.000
1580.9924,-210.000
1581.0324,-210.000
1581.0724,-210.000
1581.1124, -86.777
1581.1525,-210.000
1581.1925,-210.000
1581.2325, -88.984
1581.2725,-210.000
1581.3125, -86.042
1581.3525,-210.000
1581.3926,-210.000
1581.4326, -91.389
1581.4726, -84.610
1581.5126,-210.000
1581.5526,-210.000
1581.5926,-210.000
1581.6327,-210.000
1581.6727,-210.000
1581.7127,-210.000
1581.7527,-210.000
1581.7927, -89.753
1581.8327,-210.000
1581.8727,-210.000
1581.9128,-210.000
1581.9528, -84.696
1581.9928, -90.325
1582.0328,-210.000
1582.0728,-210.000
1582.1128, -90.651
1582.1529,-210.000
1582.1929,-210.000
1582.2329, -96.345
1582.2729,-102.361
1582.3129,-210.000
1582.3529,-210.000
1582.3930,-210.000
1582.4330, -86.469
1582.4730, -89.316
1582.5130,-210.000
1582.5530,-101.704
1582.5930, -86.574
1582.6331,-210.000
1582.6731,-210.000
1582.7131,-210.000
1582.7531, -86.281
1582.7931, -90.073
1582.8331,-210.000
1582.8731,-210.000
1582.9132,-210.000
1582.9532,-210.000
1582.9932, -89.083
1583.0332, -99.564
1583.0732,-210.000
1583.1132,-210.000
1583.1533, -87.939
1583.1933,-210.000
1583.2333, -88.270
1583.2733,-100.794
1583.3133,-210.000
1583.3533,-210.000
1583.3934, -89.278
1583.4334,-210.000
1583.4734,-210.000
1583.5134,-210.000
1583.5534,-210.000
1583.5934,-210.000
1583.6335,-210.000
1583.6735,-210.000
1583.7135,-210.000
1583.7535,-210.000
1583.7935, -91.700
1583.8335,-210.000
1583.8735,-210.000
1583.9136,-210.000
1583.9536,-210.000
1583.9936,-210.000
1584.0336,-210.000
1584.0736,-210.000
1584.1136,-210.000
1584.1537,-210.000
1584.1937,-210.000
1584.2337,-210.000
1584.2737,-210.000
1584.3137,-210.000
1584.3537,-210.000
1584.3938,-210.000
1584.4338,-210.000
1584.4738,-210.000
1584.5138,-210.000
1584.5538,-210.000
1584.5938,-210.000
1584.6339,-210.000
1584.6739,-210.000
1584.7139,-210.000
1584.7539,-210.000
1584.7939,-210.000
1584.8339,-210.000
1584.8739,-210.000
1584.9140,-210.000
1584.9540,-210.000
1584.9940,-210.000
1585.0340,-102.330
1585.0740,-210.000
1585.1140, -84.826
1585.1541,-210.000
1585.1941,-210.000
1585.2341, -84.664
1585.2741,-210.000
1585.3141,-210.000
1585.3541,-210.000
1585.3942,-210.000
1585.4342, -88.213
1585.4742, -92.246
1585.5142,-210.000
1585.5542, -85.878
1585.5942,-210.000
1585.6343,-210.000
1585.6743,-210.000
1585.7143,-210.000
1585.7543,-210.000
1585.7943, -86.765
1585.8343,-210.000
1585.8743,-210.000
1585.9144,-210.000
1585.9544, -86.505
1585.9944,-210.000
1586.0344, -94.123
1586.0744,-210.000
1586.1144,-210.000
1586.1545, -94.121
1586.1945, -86.916
1586.2345,-210.000
1586.2745,-210.000
1586.3145,-210.000
1586.3545,-210.000
1586.3946, -91.864
1586.4346,-210.000
1586.4746,-210.000
1586.5146,-210.000
1586.5546,-210.000
1586.5946,-210.000
1586.6347,-210.000
1586.6747,-210.000
1586.7147,-210.000
1586.7547,-210.000
1586.7947,-210.000
1586.8347,-210.000
1586.8747, -98.068
1586.9148,-210.000
1586.9548, -92.773
1586.9948,-210.000
1587.0348,-210.000
1587.0748,-210.000
1587.1148,-210.000
1587.1549, -94.566
1587.1949,-210.000
1587.2349,-210.000
1587.2749,-210.000
1587.3149,-210.000
1587.3549,-210.000
1587.3950,-210.000
1587.4350, -89.239
1587.4750,-210.000
1587.5150, -91.895
1587.5550,-210.000
1587.5950, -86.137
1587.6351,-210.000
1587.6751,-210.000
1587.7151,-210.000
1587.7551,-210.000
1587.7951, -86.175
1587.8351,-210.000
1587.8752,-210.000
1587.9152,-210.000
1587.9552,-210.000
1587.9952,-210.000
1588.0352,-210.000
1588.0752,-210.000
1588.1152,-210.000
1588.1553,-210.000
1588.1953,-210.000
1588.2353,-210.000
1588.2753,-210.000
1588.3153,-210.000
1588.3553,-210.000
1588.3954,-210.000
1588.4354,-210.000
1588.4754,-210.000
1588.5154,-210.000
1588.5554,-210.000
1588.5954, -91.009
1588.6355,-210.000
1588.6755,-210.000
1588.7155,-210.000
1588.7555, -94.636
1588.7955,-210.000
1588.8355, -91.058
1588.8756,-210.000
1588.9156,-210.000
1588.9556, -91.732
1588.9956,-210.000
1589.0356,-210.000
1589.0756,-210.000
1589.1156, -94.304
1589.1557, -94.049
1589.1957,-210.000
1589.2357,-210.000
1589.2757,-210.000
1589.3157, -96.590
1589.3557,-210.000
1589.3958,-210.000
1589.4358,-210.000
1589.4758,-210.000
1589.5158,-210.000
1589.5558,-210.000
1589.5958,-210.000
1589.6359,-210.000
1589.6759,-210.000
1589.7159,-210.000
1589.7559,-210.000
1589.7959,-210.000
1589.8359,-210.000
1589.8760, -85.619
1589.9160,-210.000
1589.9560,-210.000
1589.9960,-210.000
1590.0360,-210.000
1590.0760,-210.000
1590.1160, -87.634
1590.1561,-210.000
1590.1961,-210.000
1590.2361, -89.636
1590.2761,-210.000
1590.3161,-210.000
1590.3561,-210.000
1590.3962,-210.000
1590.4362,-210.000
1590.4762,-210.000
1590.5162, -97.258
1590.5562,-210.000
1590.5962,-210.000
1590.6363,-210.000
1590.6763,-210.000
1590.7163,-210.000
1590.7563,-210.000
1590.7963,-210.000
1590.8363,-210.000
1590.8764,-210.000
1590.9164,-210.000
1590.9564,-210.000
1590.9964,-210.000
1591.0364,-210.000
1591.0764, -92.251
1591.1164,-210.000
1591.1565,-210.000
1591.1965,-210.000
1591.2365,-210.000
1591.2765,-210.000
1591.3165,-210.000
1591.3565,-210.000
1591.3966,-210.000
1591.4366,-210.000
1591.4766,-210.000
1591.5166,-210.000
1591.5566,-210.000
1591.5966,-210.000
1591.6367,-210.000
1591.6767,-210.000
1591.7167,-210.000
1591.7567,-210.000
1591.7967,-210.000
1591.8367, -90.213
1591.8768,-210.000
1591.9168,-210.000
1591.9568,-210.000
1591.9968,-210.000
1592.0368,-210.000
1592.0768,-210.000
1592.1168,-210.000
1592.1569,-210.000
1592.1969,-210.000
1592.2369,-210.000
1592.2769,-210.000
1592.3169,-210.000
1592.3569,-210.000
1592.3970,-210.000
1592.4370,-210.000
1592.4770,-210.000
1592.5170,-210.000
1592.5570,-210.000
1592.5970,-210.000
1592.6371,-210.000
1592.6771,-210.000
1592.7171,-210.000
1592.7571,-108.119
1592.7971,-210.000
1592.8371,-210.000
1592.8772,-210.000
1592.9172,-210.000
1592.9572, -94.549
1592.9972,-210.000
1593.0372,-210.000
1593.0772,-210.000
1593.1172,-210.000
1593.1573,-210.000
1593.1973,-210.000
1593.2373,-210.000
1593.2773,-210.000
1593.3173,-210.000
1593.3573, -88.401
1593.3974,-210.000
1593.4374,-210.000
1593.4774,-210.000
1593.5174, -88.997
1593.5574,-210.000
1593.5974,-210.000
1593.6375,-210.000
1593.6775,-210.000
1593.7175,-210.000
1593.7575,-210.000
1593.7975,-210.000
1593.8375,-210.000
1593.8776,-210.000
1593.9176,-210.000
1593.9576,-210.000
1593.9976,-210.000
1594.0376, -89.924
1594.0776,-210.000
1594.1176,-210.000
1594.1577,-210.000
1594.1977,-210.000
1594.2377,-210.000
1594.2777,-210.000
1594.3177,-210.000
1594.3577,-210.000
1594.3978,-210.000
1594.4378,-210.000
1594.4778,-210.000
1594.5178,-210.000
1594.5578,-210.000
1594.5978,-210.000
1594.6379,-210.000
1594.6779,-210.000
1594.7179,-210.000
1594.7579,-210.000
1594.7979,-210.000
1594.8379,-210.000
1594.8780,-210.000
1594.9180,-210.000
1594.9580,-210.000
1594.9980,-210.000
1595.0380,-210.000
1595.0780,-210.000
1595.1180,-210.000
1595.1581,-210.000
1595.1981,-210.000
1595.2381,-210.000
1595.2781,-210.000
1595.3181,-210.000
1595.3581,-210.000
1595.3982,-210.000
1595.4382,-210.000
1595.4782, -92.656
1595.5182,-210.000
1595.5582,-210.000
1595.5982, -98.635
1595.6383,-210.000
1595.6783,-210.000
1595.7183,-210.000
1595.7583,-210.000
1595.7983,-210.000
1595.8383, -90.423
1595.8784,-210.000
1595.9184,-210.000
1595.9584, -92.958
1595.9984,-210.000
1596.0384,-210.000
1596.0784,-210.000
1596.1184,-210.000
1596.1585,-210.000
1596.1985,-210.000
1596.2385,-210.000
1596.2785,-210.000
1596.3185, -84.044
1596.3585,-210.000
1596.3986,-210.000
1596.4386,-210.000
1596.4786,-210.000
1596.5186,-210.000
1596.5586,-210.000
1596.5986,-210.000
1596.6387,-210.000
1596.6787,-210.000
1596.7187, -84.419
1596.7587,-210.000
1596.7987,-210.000
1596.8387,-210.000
1596.8788,-210.000
1596.9188,-210.000
1596.9588, -91.292
1596.9988,-210.000
1597.0388,-210.000
1597.0788,-210.000
1597.1188,-210.000
1597.1589,-210.000
1597.1989, -91.763
1597.2389,-210.000
1597.2789,-210.000
1597.3189,-210.000
1597.3589,-210.000
1597.3990,-210.000
1597.4390,-210.000
1597.4790,-210.000
1597.5190,-210.000
1597.5590,-210.000
1597.5990,-210.000
1597.6391, -91.878
1597.6791,-210.000
1597.7191, -95.573
1597.7591,-210.000
1597.7991,-210.000
1597.8391,-210.000
1597.8792,-210.000
1597.9192,-210.000
1597.9592,-210.000
1597.9992,-210.000
1598.0392, -85.735
1598.0792,-210.000
1598.1192,-210.000
1598.1593,-210.000
1598.1993,-210.000
1598.2393,-210.000
1598.2793,-210.000
1598.3193,-210.000
1598.3593,-210.000
1598.3994,-210.000
1598.4394,-210.000
1598.4794,-210.000
1598.5194,-210.000
1598.5594, -85.704
1598.5994,-210.000
1598.6395,-210.000
1598.6795,-210.000
1598.7195,-210.000
1598.7595,-210.000
1598.7995,-210.000
1598.8395,-210.000
1598.8796,-210.000
1598.9196, -87.326
1598.9596,-210.000
1598.9996,-210.000
1599.0396,-210.000
1599.0796,-210.000
1599.1196,-210.000
1599.1597,-210.000
1599.1997,-210.000
1599.2397,-210.000
1599.2797,-210.000
1599.3197,-210.000
1599.3597, -93.791
1599.3998,-210.000
1599.4398,-210.000
1599.4798,-210.000
1599.5198,-210.000
1599.5598,-210.000
1599.5998, -91.774
1599.6399,-210.000
1599.6799,-210.000
1599.7199,-210.000
1599.7599,-210.000
1599.7999,-210.000
1599.8399,-210.000
1599.8800,-210.000
1599.9200,-210.000
1599.9600,-210.000
1600.0000,-210.000
