70BCSV 	
// AQ6370B OPTICAL SPECTRUM ANALYZER //                 
25
"CTRWL",1550.000000
"SPAN", 100.000000
"START WL",1500.000000
"STOP WL",1600.000000
"WLFREQ", 0
"REFL",-58.5
"LSCL", 5.0
"RESLN",0.500
"AVG",   1
"SMPLAUTO",      0
"SMPL",       2500
"SMPLINTVL",0.0400
"HIGH1"
"MEAS"
"LSUNT",0
"NMSKH","OFF"
"RESCOR",0
"RESPARM", 9740
"FREQPARM", 9740






"[TRACE DATA]"
1500.0000,-210.000
1500.0400,-210.000
1500.0800,-210.000
1500.1200,-210.000
1500.1601,-210.000
1500.2001,-210.000
1500.2401,-210.000
1500.2801,-210.000
1500.3201,-210.000
1500.3601,-210.000
1500.4002,-210.000
1500.4402,-210.000
1500.4802,-210.000
1500.5202,-210.000
1500.5602,-210.000
1500.6002,-210.000
1500.6403,-210.000
1500.6803,-210.000
1500.7203,-210.000
1500.7603,-210.000
1500.8003,-210.000
1500.8403,-210.000
1500.8804,-210.000
1500.9204,-210.000
1500.9604,-210.000
1501.0004,-210.000
1501.0404,-210.000
1501.0804,-210.000
1501.1204,-210.000
1501.1605,-210.000
1501.2005,-210.000
1501.2405,-210.000
1501.2805,-210.000
1501.3205,-210.000
1501.3605,-210.000
1501.4006,-210.000
1501.4406,-210.000
1501.4806,-210.000
1501.5206,-210.000
1501.5606,-210.000
1501.6006,-210.000
1501.6407,-210.000
1501.6807,-210.000
1501.7207,-210.000
1501.7607,-210.000
1501.8007,-210.000
1501.8407,-210.000
1501.8808,-210.000
1501.9208,-210.000
1501.9608,-210.000
1502.0008,-210.000
1502.0408,-210.000
1502.0808,-210.000
1502.1208,-210.000
1502.1609,-210.000
1502.2009,-210.000
1502.2409,-210.000
1502.2809, -89.086
1502.3209,-210.000
1502.3609,-210.000
1502.4010,-210.000
1502.4410,-210.000
1502.4810,-210.000
1502.5210,-210.000
1502.5610,-210.000
1502.6010, -91.151
1502.6411,-210.000
1502.6811,-210.000
1502.7211,-210.000
1502.7611,-210.000
1502.8011,-210.000
1502.8411,-210.000
1502.8812,-210.000
1502.9212,-210.000
1502.9612,-210.000
1503.0012,-210.000
1503.0412,-210.000
1503.0812,-210.000
1503.1212,-210.000
1503.1613,-210.000
1503.2013,-210.000
1503.2413,-210.000
1503.2813,-210.000
1503.3213,-210.000
1503.3613,-210.000
1503.4014,-210.000
1503.4414,-210.000
1503.4814,-210.000
1503.5214,-210.000
1503.5614,-210.000
1503.6014,-210.000
1503.6415,-210.000
1503.6815,-210.000
1503.7215,-210.000
1503.7615, -86.725
1503.8015,-210.000
1503.8415,-210.000
1503.8816,-210.000
1503.9216,-210.000
1503.9616,-210.000
1504.0016,-210.000
1504.0416,-210.000
1504.0816,-210.000
1504.1216,-210.000
1504.1617,-210.000
1504.2017,-210.000
1504.2417,-210.000
1504.2817,-210.000
1504.3217,-210.000
1504.3617,-100.347
1504.4018,-210.000
1504.4418,-210.000
1504.4818,-210.000
1504.5218,-210.000
1504.5618,-210.000
1504.6018,-210.000
1504.6419,-210.000
1504.6819,-210.000
1504.7219,-210.000
1504.7619, -97.272
1504.8019,-210.000
1504.8419,-210.000
1504.8820,-210.000
1504.9220,-210.000
1504.9620,-210.000
1505.0020,-210.000
1505.0420,-210.000
1505.0820,-210.000
1505.1220,-210.000
1505.1621,-210.000
1505.2021,-210.000
1505.2421,-210.000
1505.2821,-210.000
1505.3221,-210.000
1505.3621,-210.000
1505.4022,-210.000
1505.4422,-210.000
1505.4822,-210.000
1505.5222,-210.000
1505.5622,-210.000
1505.6022,-210.000
1505.6423,-210.000
1505.6823,-210.000
1505.7223,-210.000
1505.7623,-210.000
1505.8023,-210.000
1505.8423,-210.000
1505.8824,-210.000
1505.9224,-210.000
1505.9624,-210.000
1506.0024,-210.000
1506.0424,-210.000
1506.0824,-210.000
1506.1224,-210.000
1506.1625,-210.000
1506.2025,-210.000
1506.2425,-210.000
1506.2825,-210.000
1506.3225,-210.000
1506.3625,-210.000
1506.4026,-210.000
1506.4426,-210.000
1506.4826,-210.000
1506.5226,-210.000
1506.5626,-210.000
1506.6026,-210.000
1506.6427,-210.000
1506.6827,-210.000
1506.7227,-210.000
1506.7627,-210.000
1506.8027,-210.000
1506.8427,-210.000
1506.8828,-210.000
1506.9228,-210.000
1506.9628,-210.000
1507.0028,-210.000
1507.0428,-210.000
1507.0828,-210.000
1507.1228,-210.000
1507.1629,-210.000
1507.2029,-210.000
1507.2429,-210.000
1507.2829,-210.000
1507.3229,-210.000
1507.3629,-210.000
1507.4030,-210.000
1507.4430,-210.000
1507.4830, -91.916
1507.5230,-210.000
1507.5630,-210.000
1507.6030,-210.000
1507.6431,-210.000
1507.6831,-210.000
1507.7231,-210.000
1507.7631,-210.000
1507.8031,-210.000
1507.8431,-210.000
1507.8832,-210.000
1507.9232,-210.000
1507.9632,-210.000
1508.0032,-210.000
1508.0432,-210.000
1508.0832,-210.000
1508.1232,-210.000
1508.1633,-210.000
1508.2033,-210.000
1508.2433,-210.000
1508.2833,-210.000
1508.3233, -92.031
1508.3633,-210.000
1508.4034,-210.000
1508.4434,-210.000
1508.4834,-210.000
1508.5234,-210.000
1508.5634,-210.000
1508.6034,-210.000
1508.6435,-210.000
1508.6835,-210.000
1508.7235,-210.000
1508.7635,-210.000
1508.8035,-210.000
1508.8435,-210.000
1508.8836,-210.000
1508.9236,-210.000
1508.9636,-210.000
1509.0036,-210.000
1509.0436,-210.000
1509.0836,-210.000
1509.1236,-210.000
1509.1637,-210.000
1509.2037,-210.000
1509.2437,-210.000
1509.2837,-210.000
1509.3237,-210.000
1509.3637,-210.000
1509.4038,-210.000
1509.4438,-210.000
1509.4838,-210.000
1509.5238,-210.000
1509.5638,-210.000
1509.6038,-210.000
1509.6439,-210.000
1509.6839,-210.000
1509.7239,-210.000
1509.7639,-210.000
1509.8039,-210.000
1509.8439,-210.000
1509.8840,-210.000
1509.9240,-210.000
1509.9640, -96.017
1510.0040,-210.000
1510.0440,-210.000
1510.0840,-210.000
1510.1240,-210.000
1510.1641,-210.000
1510.2041,-210.000
1510.2441,-210.000
1510.2841,-210.000
1510.3241,-210.000
1510.3641,-210.000
1510.4042,-210.000
1510.4442,-210.000
1510.4842,-210.000
1510.5242,-210.000
1510.5642,-210.000
1510.6042,-210.000
1510.6443,-210.000
1510.6843,-210.000
1510.7243,-210.000
1510.7643,-210.000
1510.8043,-210.000
1510.8443,-210.000
1510.8844,-210.000
1510.9244,-210.000
1510.9644,-210.000
1511.0044,-210.000
1511.0444,-210.000
1511.0844,-210.000
1511.1244,-210.000
1511.1645,-210.000
1511.2045,-210.000
1511.2445,-210.000
1511.2845,-210.000
1511.3245,-210.000
1511.3645,-210.000
1511.4046, -90.641
1511.4446,-210.000
1511.4846,-210.000
1511.5246,-210.000
1511.5646,-210.000
1511.6046,-210.000
1511.6447,-210.000
1511.6847,-210.000
1511.7247,-210.000
1511.7647,-210.000
1511.8047,-210.000
1511.8447,-210.000
1511.8848,-210.000
1511.9248,-210.000
1511.9648,-210.000
1512.0048,-210.000
1512.0448,-210.000
1512.0848,-210.000
1512.1248,-210.000
1512.1649,-210.000
1512.2049,-210.000
1512.2449,-210.000
1512.2849,-210.000
1512.3249,-210.000
1512.3649,-210.000
1512.4050,-210.000
1512.4450,-210.000
1512.4850,-210.000
1512.5250,-210.000
1512.5650,-210.000
1512.6050,-210.000
1512.6451,-210.000
1512.6851,-210.000
1512.7251,-210.000
1512.7651,-210.000
1512.8051,-210.000
1512.8451,-210.000
1512.8852,-210.000
1512.9252,-210.000
1512.9652,-210.000
1513.0052,-210.000
1513.0452,-210.000
1513.0852,-210.000
1513.1253,-210.000
1513.1653,-210.000
1513.2053,-210.000
1513.2453,-210.000
1513.2853,-210.000
1513.3253,-210.000
1513.3653, -90.866
1513.4054,-210.000
1513.4454,-210.000
1513.4854,-210.000
1513.5254,-210.000
1513.5654,-210.000
1513.6054,-210.000
1513.6455,-210.000
1513.6855,-210.000
1513.7255,-210.000
1513.7655,-210.000
1513.8055,-210.000
1513.8455,-210.000
1513.8856,-210.000
1513.9256,-210.000
1513.9656,-210.000
1514.0056,-210.000
1514.0456,-210.000
1514.0856,-210.000
1514.1257,-210.000
1514.1657,-210.000
1514.2057,-210.000
1514.2457,-210.000
1514.2857,-210.000
1514.3257,-210.000
1514.3657,-210.000
1514.4058,-210.000
1514.4458,-210.000
1514.4858,-210.000
1514.5258,-210.000
1514.5658,-210.000
1514.6058,-210.000
1514.6459,-210.000
1514.6859,-210.000
1514.7259,-210.000
1514.7659,-210.000
1514.8059,-210.000
1514.8459, -84.123
1514.8860,-210.000
1514.9260,-210.000
1514.9660,-210.000
1515.0060,-210.000
1515.0460,-210.000
1515.0860,-210.000
1515.1261,-210.000
1515.1661,-210.000
1515.2061,-210.000
1515.2461,-210.000
1515.2861,-210.000
1515.3261,-210.000
1515.3661,-210.000
1515.4062,-210.000
1515.4462,-210.000
1515.4862,-210.000
1515.5262,-210.000
1515.5662,-210.000
1515.6062,-210.000
1515.6463,-210.000
1515.6863,-210.000
1515.7263,-210.000
1515.7663,-210.000
1515.8063,-210.000
1515.8463,-210.000
1515.8864,-210.000
1515.9264,-210.000
1515.9664,-210.000
1516.0064,-210.000
1516.0464,-210.000
1516.0864,-210.000
1516.1265,-210.000
1516.1665,-210.000
1516.2065,-210.000
1516.2465,-210.000
1516.2865,-210.000
1516.3265,-210.000
1516.3665,-210.000
1516.4066,-210.000
1516.4466,-210.000
1516.4866,-210.000
1516.5266,-210.000
1516.5666,-210.000
1516.6066,-210.000
1516.6467,-210.000
1516.6867,-210.000
1516.7267,-210.000
1516.7667,-210.000
1516.8067,-210.000
1516.8467,-210.000
1516.8868,-210.000
1516.9268, -88.878
1516.9668,-210.000
1517.0068,-210.000
1517.0468,-210.000
1517.0868,-210.000
1517.1269,-210.000
1517.1669,-210.000
1517.2069,-210.000
1517.2469, -95.236
1517.2869,-210.000
1517.3269,-210.000
1517.3669,-210.000
1517.4070,-210.000
1517.4470,-210.000
1517.4870,-210.000
1517.5270,-210.000
1517.5670,-210.000
1517.6070,-210.000
1517.6471,-210.000
1517.6871,-210.000
1517.7271,-210.000
1517.7671,-210.000
1517.8071,-210.000
1517.8471,-210.000
1517.8872,-210.000
1517.9272,-210.000
1517.9672,-210.000
1518.0072,-210.000
1518.0472,-210.000
1518.0872,-210.000
1518.1273,-210.000
1518.1673,-210.000
1518.2073,-210.000
1518.2473,-210.000
1518.2873,-210.000
1518.3273,-210.000
1518.3673,-210.000
1518.4074,-210.000
1518.4474,-210.000
1518.4874,-210.000
1518.5274,-210.000
1518.5674,-210.000
1518.6074,-210.000
1518.6475,-210.000
1518.6875,-104.272
1518.7275,-210.000
1518.7675,-210.000
1518.8075,-210.000
1518.8475,-210.000
1518.8876,-210.000
1518.9276,-210.000
1518.9676,-210.000
1519.0076,-210.000
1519.0476,-210.000
1519.0876,-210.000
1519.1277,-210.000
1519.1677,-210.000
1519.2077, -96.704
1519.2477,-210.000
1519.2877,-210.000
1519.3277,-210.000
1519.3677,-210.000
1519.4078,-210.000
1519.4478,-210.000
1519.4878,-210.000
1519.5278,-210.000
1519.5678,-210.000
1519.6078,-210.000
1519.6479,-210.000
1519.6879,-210.000
1519.7279,-210.000
1519.7679,-210.000
1519.8079,-210.000
1519.8479,-210.000
1519.8880,-210.000
1519.9280,-210.000
1519.9680,-210.000
1520.0080,-210.000
1520.0480,-210.000
1520.0880,-210.000
1520.1281,-210.000
1520.1681,-210.000
1520.2081,-210.000
1520.2481,-210.000
1520.2881,-210.000
1520.3281,-210.000
1520.3681,-210.000
1520.4082,-210.000
1520.4482,-210.000
1520.4882,-210.000
1520.5282,-210.000
1520.5682,-210.000
1520.6082, -87.621
1520.6483,-210.000
1520.6883,-210.000
1520.7283,-210.000
1520.7683,-210.000
1520.8083,-210.000
1520.8483,-210.000
1520.8884,-210.000
1520.9284,-210.000
1520.9684,-210.000
1521.0084,-210.000
1521.0484,-210.000
1521.0884,-210.000
1521.1285,-210.000
1521.1685,-210.000
1521.2085,-210.000
1521.2485,-210.000
1521.2885,-210.000
1521.3285,-210.000
1521.3685,-210.000
1521.4086,-210.000
1521.4486, -96.861
1521.4886,-210.000
1521.5286,-210.000
1521.5686,-210.000
1521.6086,-210.000
1521.6487,-210.000
1521.6887,-210.000
1521.7287,-210.000
1521.7687,-210.000
1521.8087,-210.000
1521.8487,-210.000
1521.8888,-210.000
1521.9288,-210.000
1521.9688,-210.000
1522.0088,-210.000
1522.0488,-210.000
1522.0888,-210.000
1522.1289,-210.000
1522.1689,-210.000
1522.2089,-210.000
1522.2489, -89.486
1522.2889,-210.000
1522.3289,-210.000
1522.3689,-210.000
1522.4090, -84.848
1522.4490,-210.000
1522.4890,-104.147
1522.5290,-210.000
1522.5690,-210.000
1522.6090,-210.000
1522.6491, -86.701
1522.6891,-210.000
1522.7291,-210.000
1522.7691, -99.655
1522.8091, -89.412
1522.8491, -85.798
1522.8892, -86.962
1522.9292, -87.050
1522.9692, -84.216
1523.0092, -88.998
1523.0492,-210.000
1523.0892, -81.264
1523.1293, -87.440
1523.1693, -97.696
1523.2093,-210.000
1523.2493, -84.442
1523.2893,-210.000
1523.3293, -81.928
1523.3693,-210.000
1523.4094, -87.912
1523.4494, -85.859
1523.4894, -85.238
1523.5294, -86.294
1523.5694, -86.335
1523.6094, -89.846
1523.6495, -82.248
1523.6895,-210.000
1523.7295, -81.397
1523.7695, -90.242
1523.8095, -80.855
1523.8495,-210.000
1523.8896, -80.753
1523.9296, -86.262
1523.9696, -83.978
1524.0096,-210.000
1524.0496, -83.770
1524.0896, -83.394
1524.1297, -83.930
1524.1697, -83.904
1524.2097, -85.125
1524.2497, -82.839
1524.2897, -83.065
1524.3297, -79.374
1524.3697, -81.247
1524.4098, -80.259
1524.4498, -79.958
1524.4898, -79.935
1524.5298, -77.892
1524.5698, -79.768
1524.6098, -78.721
1524.6499, -78.355
1524.6899, -78.212
1524.7299, -77.854
1524.7699, -78.122
1524.8099, -78.428
1524.8499, -76.526
1524.8900, -77.013
1524.9300, -76.633
1524.9700, -75.595
1525.0100, -76.128
1525.0500, -76.395
1525.0900, -74.814
1525.1301, -75.509
1525.1701, -74.656
1525.2101, -74.740
1525.2501, -74.421
1525.2901, -74.800
1525.3301, -74.431
1525.3701, -73.763
1525.4102, -73.587
1525.4502, -73.758
1525.4902, -73.068
1525.5302, -73.387
1525.5702, -72.662
1525.6102, -72.465
1525.6503, -72.901
1525.6903, -72.596
1525.7303, -72.149
1525.7703, -72.091
1525.8103, -71.685
1525.8503, -71.585
1525.8904, -71.607
1525.9304, -71.350
1525.9704, -71.104
1526.0104, -70.932
1526.0504, -70.736
1526.0904, -70.234
1526.1305, -70.669
1526.1705, -70.309
1526.2105, -70.060
1526.2505, -69.993
1526.2905, -69.823
1526.3305, -69.767
1526.3705, -69.610
1526.4106, -69.565
1526.4506, -69.366
1526.4906, -69.433
1526.5306, -69.346
1526.5706, -69.414
1526.6106, -69.164
1526.6507, -69.345
1526.6907, -69.073
1526.7307, -68.981
1526.7707, -69.016
1526.8107, -69.040
1526.8507, -68.974
1526.8908, -69.113
1526.9308, -68.945
1526.9708, -69.055
1527.0108, -69.039
1527.0508, -69.136
1527.0908, -69.146
1527.1309, -68.987
1527.1709, -69.190
1527.2109, -69.143
1527.2509, -69.183
1527.2909, -69.322
1527.3309, -69.385
1527.3709, -69.299
1527.4110, -69.614
1527.4510, -69.507
1527.4910, -69.518
1527.5310, -69.756
1527.5710, -69.552
1527.6110, -69.799
1527.6511, -69.819
1527.6911, -69.579
1527.7311, -69.715
1527.7711, -69.797
1527.8111, -69.651
1527.8511, -69.734
1527.8912, -69.498
1527.9312, -69.212
1527.9712, -69.140
1528.0112, -69.038
1528.0512, -68.954
1528.0912, -68.738
1528.1313, -68.578
1528.1713, -68.323
1528.2113, -68.132
1528.2513, -67.967
1528.2913, -67.653
1528.3313, -67.609
1528.3713, -67.264
1528.4114, -67.223
1528.4514, -66.943
1528.4914, -66.796
1528.5314, -66.724
1528.5714, -66.611
1528.6114, -66.399
1528.6515, -66.319
1528.6915, -66.171
1528.7315, -66.056
1528.7715, -66.005
1528.8115, -65.862
1528.8515, -65.845
1528.8916, -65.736
1528.9316, -65.757
1528.9716, -65.685
1529.0116, -65.694
1529.0516, -65.675
1529.0916, -65.677
1529.1317, -65.790
1529.1717, -65.733
1529.2117, -65.848
1529.2517, -65.776
1529.2917, -65.927
1529.3317, -66.011
1529.3717, -65.989
1529.4118, -66.074
1529.4518, -66.171
1529.4918, -66.208
1529.5318, -66.339
1529.5718, -66.464
1529.6118, -66.540
1529.6519, -66.554
1529.6919, -66.824
1529.7319, -66.948
1529.7719, -67.117
1529.8119, -67.280
1529.8519, -67.349
1529.8920, -67.600
1529.9320, -67.675
1529.9720, -67.887
1530.0120, -67.989
1530.0520, -68.022
1530.0920, -68.099
1530.1321, -68.046
1530.1721, -67.909
1530.2121, -67.861
1530.2521, -67.613
1530.2921, -67.454
1530.3321, -67.077
1530.3721, -66.804
1530.4122, -66.384
1530.4522, -66.081
1530.4922, -65.737
1530.5322, -65.320
1530.5722, -64.921
1530.6122, -64.679
1530.6523, -64.260
1530.6923, -63.861
1530.7323, -63.591
1530.7723, -63.234
1530.8123, -62.923
1530.8523, -62.686
1530.8924, -62.401
1530.9324, -62.157
1530.9724, -61.926
1531.0124, -61.708
1531.0524, -61.451
1531.0924, -61.305
1531.1325, -61.117
1531.1725, -60.940
1531.2125, -60.783
1531.2525, -60.609
1531.2925, -60.480
1531.3325, -60.325
1531.3725, -60.180
1531.4126, -60.041
1531.4526, -59.905
1531.4926, -59.775
1531.5326, -59.650
1531.5726, -59.542
1531.6126, -59.423
1531.6527, -59.328
1531.6927, -59.200
1531.7327, -59.161
1531.7727, -59.084
1531.8127, -59.021
1531.8527, -58.983
1531.8928, -58.941
1531.9328, -58.900
1531.9728, -58.899
1532.0128, -58.891
1532.0528, -58.893
1532.0928, -58.879
1532.1329, -58.909
1532.1729, -58.920
1532.2129, -58.920
1532.2529, -58.982
1532.2929, -59.002
1532.3329, -59.057
1532.3729, -59.107
1532.4130, -59.168
1532.4530, -59.240
1532.4930, -59.307
1532.5330, -59.380
1532.5730, -59.479
1532.6130, -59.587
1532.6531, -59.682
1532.6931, -59.833
1532.7331, -59.951
1532.7731, -60.092
1532.8131, -60.252
1532.8531, -60.424
1532.8932, -60.566
1532.9332, -60.774
1532.9732, -60.897
1533.0132, -61.113
1533.0532, -61.277
1533.0932, -61.460
1533.1333, -61.668
1533.1733, -61.849
1533.2133, -62.084
1533.2533, -62.282
1533.2933, -62.512
1533.3333, -62.768
1533.3733, -62.932
1533.4134, -63.213
1533.4534, -63.395
1533.4934, -63.634
1533.5334, -63.873
1533.5734, -64.163
1533.6134, -64.451
1533.6535, -64.782
1533.6935, -64.949
1533.7335, -65.320
1533.7735, -65.598
1533.8135, -65.978
1533.8535, -66.337
1533.8936, -66.571
1533.9336, -67.024
1533.9736, -67.231
1534.0136, -67.543
1534.0536, -67.934
1534.0936, -68.110
1534.1337, -68.443
1534.1737, -68.730
1534.2137, -68.743
1534.2537, -69.060
1534.2937, -68.992
1534.3337, -69.008
1534.3737, -69.169
1534.4138, -69.118
1534.4538, -69.076
1534.4938, -68.842
1534.5338, -68.643
1534.5738, -68.528
1534.6138, -68.426
1534.6539, -68.118
1534.6939, -68.131
1534.7339, -67.702
1534.7739, -67.589
1534.8139, -67.356
1534.8539, -67.128
1534.8940, -66.829
1534.9340, -66.724
1534.9740, -66.442
1535.0140, -66.174
1535.0540, -65.965
1535.0940, -65.711
1535.1341, -65.579
1535.1741, -65.367
1535.2141, -65.101
1535.2541, -65.030
1535.2941, -64.846
1535.3341, -64.687
1535.3741, -64.634
1535.4142, -64.475
1535.4542, -64.513
1535.4942, -64.410
1535.5342, -64.404
1535.5742, -64.352
1535.6142, -64.402
1535.6543, -64.444
1535.6943, -64.433
1535.7343, -64.441
1535.7743, -64.504
1535.8143, -64.504
1535.8543, -64.596
1535.8944, -64.598
1535.9344, -64.695
1535.9744, -64.790
1536.0144, -64.800
1536.0544, -64.888
1536.0944, -65.047
1536.1345, -65.112
1536.1745, -65.278
1536.2145, -65.408
1536.2545, -65.457
1536.2945, -65.668
1536.3345, -65.770
1536.3745, -65.989
1536.4146, -66.122
1536.4546, -66.272
1536.4946, -66.492
1536.5346, -66.672
1536.5746, -66.847
1536.6146, -67.034
1536.6547, -67.242
1536.6947, -67.366
1536.7347, -67.517
1536.7747, -67.628
1536.8147, -67.867
1536.8547, -68.006
1536.8948, -67.971
1536.9348, -67.999
1536.9748, -67.999
1537.0148, -68.224
1537.0548, -68.210
1537.0948, -68.477
1537.1349, -68.249
1537.1749, -68.390
1537.2149, -68.393
1537.2549, -68.550
1537.2949, -68.575
1537.3349, -68.403
1537.3749, -68.663
1537.4150, -68.520
1537.4550, -68.745
1537.4950, -68.655
1537.5350, -68.998
1537.5750, -68.862
1537.6150, -69.126
1537.6551, -69.212
1537.6951, -69.338
1537.7351, -69.632
1537.7751, -69.680
1537.8151, -69.937
1537.8551, -70.263
1537.8952, -70.045
1537.9352, -70.719
1537.9752, -70.869
1538.0152, -71.232
1538.0552, -71.301
1538.0952, -71.489
1538.1353, -71.780
1538.1753, -71.914
1538.2153, -72.204
1538.2553, -72.818
1538.2953, -72.771
1538.3353, -72.475
1538.3754, -73.412
1538.4154, -72.793
1538.4554, -73.175
1538.4954, -72.922
1538.5354, -72.793
1538.5754, -72.340
1538.6154, -72.570
1538.6555, -72.074
1538.6955, -71.961
1538.7355, -71.774
1538.7755, -71.198
1538.8155, -71.061
1538.8555, -70.732
1538.8956, -70.456
1538.9356, -70.161
1538.9756, -69.819
1539.0156, -69.533
1539.0556, -69.157
1539.0956, -69.120
1539.1357, -68.698
1539.1757, -68.490
1539.2157, -68.251
1539.2557, -68.059
1539.2957, -67.863
1539.3357, -67.738
1539.3758, -67.504
1539.4158, -67.263
1539.4558, -67.105
1539.4958, -67.066
1539.5358, -66.769
1539.5758, -66.761
1539.6158, -66.619
1539.6559, -66.502
1539.6959, -66.400
1539.7359, -66.360
1539.7759, -66.300
1539.8159, -66.274
1539.8559, -66.177
1539.8960, -66.180
1539.9360, -66.164
1539.9760, -66.085
1540.0160, -66.122
1540.0560, -66.128
1540.0960, -66.080
1540.1361, -66.179
1540.1761, -66.126
1540.2161, -66.203
1540.2561, -66.277
1540.2961, -66.276
1540.3361, -66.369
1540.3762, -66.286
1540.4162, -66.448
1540.4562, -66.410
1540.4962, -66.462
1540.5362, -66.457
1540.5762, -66.477
1540.6162, -66.407
1540.6563, -66.375
1540.6963, -66.376
1540.7363, -66.372
1540.7763, -66.340
1540.8163, -66.290
1540.8563, -66.298
1540.8964, -66.247
1540.9364, -66.241
1540.9764, -66.251
1541.0164, -66.277
1541.0564, -66.294
1541.0964, -66.366
1541.1365, -66.325
1541.1765, -66.446
1541.2165, -66.468
1541.2565, -66.499
1541.2965, -66.663
1541.3365, -66.742
1541.3766, -66.898
1541.4166, -67.032
1541.4566, -67.175
1541.4966, -67.286
1541.5366, -67.459
1541.5766, -67.581
1541.6166, -67.668
1541.6567, -67.796
1541.6967, -67.980
1541.7367, -68.107
1541.7767, -68.184
1541.8167, -68.305
1541.8567, -68.366
1541.8968, -68.274
1541.9368, -68.472
1541.9768, -68.258
1542.0168, -68.217
1542.0568, -68.185
1542.0968, -68.369
1542.1369, -68.338
1542.1769, -68.205
1542.2169, -68.242
1542.2569, -68.228
1542.2969, -68.276
1542.3369, -68.277
1542.3770, -68.263
1542.4170, -68.362
1542.4570, -68.246
1542.4970, -68.320
1542.5370, -68.294
1542.5770, -68.360
1542.6170, -68.188
1542.6571, -68.489
1542.6971, -68.342
1542.7371, -68.287
1542.7771, -68.343
1542.8171, -68.347
1542.8571, -68.207
1542.8972, -68.227
1542.9372, -68.343
1542.9772, -68.286
1543.0172, -68.196
1543.0572, -68.323
1543.0972, -68.141
1543.1373, -68.039
1543.1773, -68.034
1543.2173, -68.016
1543.2573, -67.927
1543.2973, -67.752
1543.3373, -67.740
1543.3774, -67.561
1543.4174, -67.590
1543.4574, -67.406
1543.4974, -67.276
1543.5374, -67.126
1543.5774, -67.073
1543.6174, -66.950
1543.6575, -66.823
1543.6975, -66.838
1543.7375, -66.645
1543.7775, -66.611
1543.8175, -66.542
1543.8575, -66.486
1543.8976, -66.461
1543.9376, -66.456
1543.9776, -66.367
1544.0176, -66.288
1544.0576, -66.304
1544.0976, -66.344
1544.1377, -66.258
1544.1777, -66.334
1544.2177, -66.271
1544.2577, -66.324
1544.2977, -66.412
1544.3377, -66.338
1544.3778, -66.545
1544.4178, -66.490
1544.4578, -66.538
1544.4978, -66.728
1544.5378, -66.705
1544.5778, -66.788
1544.6178, -66.849
1544.6579, -67.066
1544.6979, -67.096
1544.7379, -67.241
1544.7779, -67.401
1544.8179, -67.305
1544.8579, -67.691
1544.8980, -67.759
1544.9380, -67.877
1544.9780, -68.141
1545.0180, -68.254
1545.0580, -68.384
1545.0980, -68.516
1545.1381, -68.746
1545.1781, -68.792
1545.2181, -68.974
1545.2581, -69.231
1545.2981, -69.221
1545.3381, -69.431
1545.3782, -69.454
1545.4182, -69.474
1545.4582, -69.343
1545.4982, -69.413
1545.5382, -69.399
1545.5782, -69.452
1545.6182, -69.482
1545.6583, -69.381
1545.6983, -69.440
1545.7383, -69.255
1545.7783, -69.114
1545.8183, -69.063
1545.8583, -68.966
1545.8984, -68.725
1545.9384, -68.753
1545.9784, -68.515
1546.0184, -68.369
1546.0584, -68.228
1546.0984, -68.077
1546.1385, -68.108
1546.1785, -67.835
1546.2185, -67.678
1546.2585, -67.487
1546.2985, -67.257
1546.3385, -67.346
1546.3786, -67.165
1546.4186, -67.003
1546.4586, -66.896
1546.4986, -66.791
1546.5386, -66.607
1546.5786, -66.545
1546.6186, -66.459
1546.6587, -66.425
1546.6987, -66.327
1546.7387, -66.373
1546.7787, -66.311
1546.8187, -66.276
1546.8587, -66.206
1546.8988, -66.368
1546.9388, -66.346
1546.9788, -66.363
1547.0188, -66.555
1547.0588, -66.518
1547.0988, -66.689
1547.1389, -66.754
1547.1789, -66.727
1547.2189, -67.074
1547.2589, -66.994
1547.2989, -67.157
1547.3389, -67.346
1547.3790, -67.454
1547.4190, -67.711
1547.4590, -67.619
1547.4990, -67.975
1547.5390, -67.865
1547.5790, -67.936
1547.6190, -68.149
1547.6591, -68.041
1547.6991, -68.013
1547.7391, -67.779
1547.7791, -67.822
1547.8191, -67.672
1547.8591, -67.662
1547.8992, -67.562
1547.9392, -67.420
1547.9792, -67.159
1548.0192, -67.171
1548.0592, -67.113
1548.0992, -66.945
1548.1393, -66.967
1548.1793, -66.765
1548.2193, -66.874
1548.2593, -66.740
1548.2993, -66.759
1548.3393, -66.548
1548.3794, -66.615
1548.4194, -66.671
1548.4594, -66.500
1548.4994, -66.426
1548.5394, -66.419
1548.5794, -66.283
1548.6194, -66.215
1548.6595, -66.021
1548.6995, -66.023
1548.7395, -65.886
1548.7795, -65.752
1548.8195, -65.669
1548.8595, -65.512
1548.8996, -65.434
1548.9396, -65.336
1548.9796, -65.114
1549.0196, -65.164
1549.0596, -65.058
1549.0996, -64.951
1549.1397, -64.838
1549.1797, -64.870
1549.2197, -64.727
1549.2597, -64.723
1549.2997, -64.681
1549.3397, -64.666
1549.3798, -64.559
1549.4198, -64.524
1549.4598, -64.555
1549.4998, -64.478
1549.5398, -64.410
1549.5798, -64.567
1549.6198, -64.516
1549.6599, -64.569
1549.6999, -64.722
1549.7399, -64.653
1549.7799, -64.710
1549.8199, -64.844
1549.8599, -64.962
1549.9000, -65.118
1549.9400, -65.204
1549.9800, -65.306
1550.0200, -65.525
1550.0600, -65.616
1550.1000, -65.757
1550.1401, -65.979
1550.1801, -66.195
1550.2201, -66.303
1550.2601, -66.527
1550.3001, -66.827
1550.3401, -66.977
1550.3802, -67.253
1550.4202, -67.493
1550.4602, -67.718
1550.5002, -67.785
1550.5402, -68.157
1550.5802, -68.265
1550.6202, -68.391
1550.6603, -68.481
1550.7003, -68.639
1550.7403, -68.668
1550.7803, -68.761
1550.8203, -68.665
1550.8603, -68.774
1550.9004, -68.757
1550.9404, -68.695
1550.9804, -68.511
1551.0204, -68.271
1551.0604, -68.297
1551.1004, -68.129
1551.1405, -67.874
1551.1805, -67.702
1551.2205, -67.637
1551.2605, -67.265
1551.3005, -67.157
1551.3405, -67.014
1551.3806, -66.828
1551.4206, -66.701
1551.4606, -66.506
1551.5006, -66.310
1551.5406, -66.310
1551.5806, -66.137
1551.6206, -66.073
1551.6607, -65.940
1551.7007, -65.894
1551.7407, -65.790
1551.7807, -65.754
1551.8207, -65.764
1551.8607, -65.623
1551.9008, -65.576
1551.9408, -65.589
1551.9808, -65.667
1552.0208, -65.591
1552.0608, -65.639
1552.1008, -65.638
1552.1409, -65.686
1552.1809, -65.689
1552.2209, -65.768
1552.2609, -65.800
1552.3009, -65.873
1552.3409, -65.991
1552.3810, -66.067
1552.4210, -66.059
1552.4610, -66.280
1552.5010, -66.297
1552.5410, -66.489
1552.5810, -66.563
1552.6210, -66.633
1552.6611, -66.827
1552.7011, -66.937
1552.7411, -67.084
1552.7811, -67.383
1552.8211, -67.493
1552.8611, -67.567
1552.9012, -67.857
1552.9412, -68.009
1552.9812, -67.988
1553.0212, -68.458
1553.0612, -68.717
1553.1012, -68.683
1553.1413, -69.130
1553.1813, -69.221
1553.2213, -69.776
1553.2613, -70.089
1553.3013, -70.202
1553.3413, -70.667
1553.3814, -70.780
1553.4214, -71.515
1553.4614, -71.686
1553.5014, -71.930
1553.5414, -72.197
1553.5814, -72.737
1553.6214, -72.669
1553.6615, -72.776
1553.7015, -72.692
1553.7415, -72.759
1553.7815, -72.944
1553.8215, -73.280
1553.8615, -72.629
1553.9016, -72.434
1553.9416, -72.716
1553.9816, -72.368
1554.0216, -72.415
1554.0616, -72.154
1554.1016, -72.050
1554.1417, -71.903
1554.1817, -71.548
1554.2217, -71.150
1554.2617, -71.364
1554.3017, -71.058
1554.3417, -70.520
1554.3818, -70.746
1554.4218, -70.322
1554.4618, -70.120
1554.5018, -69.807
1554.5418, -69.748
1554.5818, -69.408
1554.6218, -69.047
1554.6619, -68.883
1554.7019, -68.648
1554.7419, -68.325
1554.7819, -68.201
1554.8219, -67.860
1554.8619, -67.690
1554.9020, -67.432
1554.9420, -67.089
1554.9820, -67.134
1555.0220, -66.801
1555.0620, -66.521
1555.1020, -66.403
1555.1421, -66.172
1555.1821, -66.046
1555.2221, -65.861
1555.2621, -65.658
1555.3021, -65.537
1555.3421, -65.415
1555.3822, -65.285
1555.4222, -65.217
1555.4622, -65.185
1555.5022, -65.103
1555.5422, -64.997
1555.5822, -65.056
1555.6222, -65.080
1555.6623, -65.079
1555.7023, -65.152
1555.7423, -65.203
1555.7823, -65.337
1555.8223, -65.442
1555.8623, -65.577
1555.9024, -65.716
1555.9424, -65.942
1555.9824, -66.122
1556.0224, -66.306
1556.0624, -66.540
1556.1024, -66.823
1556.1425, -67.001
1556.1825, -67.118
1556.2225, -67.570
1556.2625, -67.761
1556.3025, -68.008
1556.3425, -68.298
1556.3826, -68.460
1556.4226, -68.706
1556.4626, -68.925
1556.5026, -69.224
1556.5426, -69.399
1556.5826, -69.606
1556.6226, -70.123
1556.6627, -69.911
1556.7027, -70.621
1556.7427, -70.717
1556.7827, -70.793
1556.8227, -71.178
1556.8627, -71.286
1556.9028, -71.932
1556.9428, -71.748
1556.9828, -71.718
1557.0228, -72.084
1557.0628, -71.975
1557.1028, -71.615
1557.1429, -71.608
1557.1829, -71.624
1557.2229, -71.302
1557.2629, -70.641
1557.3029, -70.756
1557.3429, -70.235
1557.3830, -69.738
1557.4230, -69.574
1557.4630, -69.101
1557.5030, -68.916
1557.5430, -68.611
1557.5830, -68.263
1557.6230, -68.016
1557.6631, -67.781
1557.7031, -67.876
1557.7431, -67.376
1557.7831, -67.368
1557.8231, -67.121
1557.8631, -67.069
1557.9032, -67.044
1557.9432, -66.851
1557.9832, -66.886
1558.0232, -66.809
1558.0632, -66.766
1558.1032, -66.813
1558.1433, -66.835
1558.1833, -66.808
1558.2233, -66.828
1558.2633, -66.974
1558.3033, -66.941
1558.3433, -66.981
1558.3834, -67.061
1558.4234, -67.088
1558.4634, -67.232
1558.5034, -67.298
1558.5434, -67.404
1558.5834, -67.549
1558.6234, -67.723
1558.6635, -67.813
1558.7035, -68.103
1558.7435, -68.291
1558.7835, -68.370
1558.8235, -68.716
1558.8635, -68.906
1558.9036, -69.126
1558.9436, -69.401
1558.9836, -69.654
1559.0236, -69.946
1559.0636, -70.598
1559.1036, -70.314
1559.1437, -71.137
1559.1837, -71.315
1559.2237, -71.367
1559.2637, -71.990
1559.3037, -72.144
1559.3437, -72.276
1559.3838, -72.914
1559.4238, -72.708
1559.4638, -72.843
1559.5038, -73.423
1559.5438, -73.758
1559.5838, -73.790
1559.6238, -74.050
1559.6639, -74.639
1559.7039, -74.966
1559.7439, -75.548
1559.7839, -75.884
1559.8239, -76.395
1559.8639, -78.421
1559.9040, -78.012
1559.9440, -80.578
1559.9840, -79.398
1560.0240, -80.119
1560.0640, -80.268
1560.1040, -83.648
1560.1441, -85.101
1560.1841,-210.000
1560.2241, -81.812
1560.2641, -81.403
1560.3041, -81.950
1560.3441, -82.877
1560.3842, -79.969
1560.4242, -80.055
1560.4642, -78.975
1560.5042, -82.891
1560.5442, -79.964
1560.5842, -77.686
1560.6242, -76.925
1560.6643, -76.654
1560.7043, -76.906
1560.7443, -76.812
1560.7843, -75.035
1560.8243, -74.572
1560.8643, -74.169
1560.9044, -73.834
1560.9444, -73.894
1560.9844, -73.976
1561.0244, -73.033
1561.0644, -72.948
1561.1044, -72.854
1561.1445, -72.921
1561.1845, -72.336
1561.2245, -72.259
1561.2645, -72.147
1561.3045, -71.982
1561.3445, -72.112
1561.3846, -72.386
1561.4246, -71.263
1561.4646, -72.097
1561.5046, -72.016
1561.5446, -71.867
1561.5846, -71.744
1561.6246, -71.997
1561.6647, -72.136
1561.7047, -72.145
1561.7447, -71.800
1561.7847, -71.987
1561.8247, -71.902
1561.8647, -71.557
1561.9048, -71.987
1561.9448, -71.650
1561.9848, -71.571
1562.0248, -71.625
1562.0648, -71.485
1562.1048, -71.579
1562.1449, -71.406
1562.1849, -71.461
1562.2249, -71.197
1562.2649, -70.879
1562.3049, -71.020
1562.3449, -70.905
1562.3850, -70.495
1562.4250, -70.375
1562.4650, -70.172
1562.5050, -70.211
1562.5450, -69.904
1562.5850, -69.581
1562.6251, -69.346
1562.6651, -69.314
1562.7051, -69.150
1562.7451, -68.697
1562.7851, -68.887
1562.8251, -68.642
1562.8651, -68.550
1562.9052, -68.374
1562.9452, -68.309
1562.9852, -68.171
1563.0252, -68.181
1563.0652, -68.147
1563.1052, -68.077
1563.1453, -68.230
1563.1853, -68.151
1563.2253, -68.143
1563.2653, -68.125
1563.3053, -68.313
1563.3453, -68.290
1563.3854, -68.317
1563.4254, -68.475
1563.4654, -68.413
1563.5054, -68.596
1563.5454, -68.638
1563.5854, -68.763
1563.6255, -68.875
1563.6655, -69.084
1563.7055, -69.001
1563.7455, -69.312
1563.7855, -69.652
1563.8255, -69.627
1563.8655, -69.841
1563.9056, -69.976
1563.9456, -70.359
1563.9856, -70.482
1564.0256, -70.988
1564.0656, -70.953
1564.1056, -71.432
1564.1457, -71.708
1564.1857, -72.108
1564.2257, -72.515
1564.2657, -72.860
1564.3057, -73.024
1564.3457, -73.505
1564.3858, -73.641
1564.4258, -73.646
1564.4658, -74.417
1564.5058, -74.136
1564.5458, -74.546
1564.5858, -75.053
1564.6259, -74.836
1564.6659, -75.607
1564.7059, -75.778
1564.7459, -76.070
1564.7859, -76.395
1564.8259, -76.332
1564.8659, -77.019
1564.9060, -76.882
1564.9460, -77.469
1564.9860, -76.742
1565.0260, -76.868
1565.0660, -77.547
1565.1060, -77.856
1565.1461, -77.947
1565.1861, -77.232
1565.2261, -76.798
1565.2661, -78.400
1565.3061, -78.768
1565.3461, -77.082
1565.3862, -77.557
1565.4262, -77.540
1565.4662, -77.191
1565.5062, -77.992
1565.5462, -76.983
1565.5862, -78.304
1565.6263, -78.710
1565.6663, -77.334
1565.7063, -78.520
1565.7463, -79.130
1565.7863, -77.519
1565.8263, -77.786
1565.8663, -79.685
1565.9064, -79.501
1565.9464, -78.591
1565.9864, -81.436
1566.0264, -79.055
1566.0664, -80.669
1566.1064, -81.637
1566.1465, -81.234
1566.1865, -81.614
1566.2265, -80.708
1566.2665, -84.068
1566.3065, -84.717
1566.3465, -81.357
1566.3866, -84.619
1566.4266, -86.924
1566.4666, -86.815
1566.5066, -82.917
1566.5466, -83.699
1566.5866, -82.006
1566.6267, -85.547
1566.6667, -83.340
1566.7067, -81.816
1566.7467, -84.145
1566.7867, -79.863
1566.8267, -84.438
1566.8667, -81.368
1566.9068, -86.904
1566.9468, -81.397
1566.9868, -82.135
1567.0268, -81.491
1567.0668, -83.724
1567.1068, -84.106
1567.1469, -80.497
1567.1869,-210.000
1567.2269, -82.581
1567.2669, -84.761
1567.3069,-210.000
1567.3469, -89.383
1567.3870,-210.000
1567.4270, -84.833
1567.4670,-210.000
1567.5070,-210.000
1567.5470,-210.000
1567.5870, -90.988
1567.6271,-210.000
1567.6671,-210.000
1567.7071,-210.000
1567.7471,-210.000
1567.7871,-210.000
1567.8271,-210.000
1567.8671,-210.000
1567.9072,-210.000
1567.9472,-210.000
1567.9872,-210.000
1568.0272,-210.000
1568.0672,-210.000
1568.1072,-210.000
1568.1473,-210.000
1568.1873,-210.000
1568.2273,-210.000
1568.2673,-210.000
1568.3073,-210.000
1568.3473,-210.000
1568.3874,-210.000
1568.4274,-210.000
1568.4674,-210.000
1568.5074,-210.000
1568.5474,-210.000
1568.5874,-210.000
1568.6275,-210.000
1568.6675,-210.000
1568.7075,-210.000
1568.7475,-210.000
1568.7875,-210.000
1568.8275,-210.000
1568.8675,-210.000
1568.9076,-210.000
1568.9476,-210.000
1568.9876,-210.000
1569.0276,-210.000
1569.0676,-210.000
1569.1076,-210.000
1569.1477,-210.000
1569.1877,-210.000
1569.2277,-210.000
1569.2677,-210.000
1569.3077,-210.000
1569.3477,-210.000
1569.3878,-210.000
1569.4278,-210.000
1569.4678,-210.000
1569.5078,-210.000
1569.5478,-210.000
1569.5878,-210.000
1569.6279,-210.000
1569.6679,-210.000
1569.7079,-210.000
1569.7479,-210.000
1569.7879,-210.000
1569.8279,-210.000
1569.8679,-210.000
1569.9080,-210.000
1569.9480, -84.873
1569.9880,-210.000
1570.0280,-210.000
1570.0680,-210.000
1570.1080,-210.000
1570.1481,-210.000
1570.1881,-210.000
1570.2281,-210.000
1570.2681,-210.000
1570.3081,-210.000
1570.3481,-210.000
1570.3882,-210.000
1570.4282,-210.000
1570.4682,-210.000
1570.5082,-210.000
1570.5482,-210.000
1570.5882,-210.000
1570.6283,-210.000
1570.6683,-210.000
1570.7083,-210.000
1570.7483,-210.000
1570.7883,-210.000
1570.8283,-210.000
1570.8683,-210.000
1570.9084,-210.000
1570.9484,-210.000
1570.9884,-210.000
1571.0284,-210.000
1571.0684,-210.000
1571.1084,-210.000
1571.1485,-210.000
1571.1885,-210.000
1571.2285,-210.000
1571.2685,-210.000
1571.3085,-210.000
1571.3485,-210.000
1571.3886,-210.000
1571.4286,-210.000
1571.4686,-210.000
1571.5086,-210.000
1571.5486,-210.000
1571.5886,-210.000
1571.6287,-210.000
1571.6687,-210.000
1571.7087,-210.000
1571.7487,-210.000
1571.7887,-210.000
1571.8287,-210.000
1571.8687,-210.000
1571.9088,-210.000
1571.9488,-210.000
1571.9888,-210.000
1572.0288,-210.000
1572.0688,-210.000
1572.1088,-210.000
1572.1489,-210.000
1572.1889,-210.000
1572.2289,-210.000
1572.2689,-210.000
1572.3089,-210.000
1572.3489,-210.000
1572.3890,-210.000
1572.4290,-210.000
1572.4690,-210.000
1572.5090,-210.000
1572.5490,-210.000
1572.5890,-210.000
1572.6291,-210.000
1572.6691,-210.000
1572.7091,-210.000
1572.7491,-210.000
1572.7891,-210.000
1572.8291,-210.000
1572.8691,-210.000
1572.9092,-210.000
1572.9492,-210.000
1572.9892,-210.000
1573.0292,-210.000
1573.0692,-210.000
1573.1092,-210.000
1573.1493,-210.000
1573.1893,-210.000
1573.2293,-210.000
1573.2693,-210.000
1573.3093,-210.000
1573.3493,-210.000
1573.3894,-210.000
1573.4294,-210.000
1573.4694,-210.000
1573.5094,-210.000
1573.5494,-210.000
1573.5894,-210.000
1573.6295,-210.000
1573.6695,-210.000
1573.7095,-210.000
1573.7495,-210.000
1573.7895,-210.000
1573.8295,-210.000
1573.8695,-210.000
1573.9096,-210.000
1573.9496,-210.000
1573.9896,-210.000
1574.0296,-210.000
1574.0696,-210.000
1574.1096,-210.000
1574.1497,-210.000
1574.1897,-210.000
1574.2297,-210.000
1574.2697,-210.000
1574.3097,-210.000
1574.3497,-210.000
1574.3898,-210.000
1574.4298,-210.000
1574.4698,-210.000
1574.5098,-210.000
1574.5498,-210.000
1574.5898,-210.000
1574.6299,-210.000
1574.6699, -93.644
1574.7099,-210.000
1574.7499,-210.000
1574.7899,-210.000
1574.8299,-210.000
1574.8699,-210.000
1574.9100,-210.000
1574.9500,-210.000
1574.9900,-210.000
1575.0300,-210.000
1575.0700,-210.000
1575.1100,-210.000
1575.1501,-210.000
1575.1901,-210.000
1575.2301,-210.000
1575.2701,-210.000
1575.3101,-210.000
1575.3501,-210.000
1575.3902,-210.000
1575.4302,-210.000
1575.4702,-210.000
1575.5102,-210.000
1575.5502,-210.000
1575.5902,-210.000
1575.6303,-210.000
1575.6703,-210.000
1575.7103,-210.000
1575.7503,-210.000
1575.7903,-210.000
1575.8303,-210.000
1575.8703,-210.000
1575.9104,-210.000
1575.9504,-210.000
1575.9904,-210.000
1576.0304,-210.000
1576.0704,-210.000
1576.1104,-210.000
1576.1505,-210.000
1576.1905,-210.000
1576.2305,-210.000
1576.2705,-100.991
1576.3105,-210.000
1576.3505,-210.000
1576.3906,-210.000
1576.4306,-210.000
1576.4706,-210.000
1576.5106,-210.000
1576.5506,-210.000
1576.5906,-210.000
1576.6307,-115.844
1576.6707,-210.000
1576.7107,-210.000
1576.7507,-210.000
1576.7907,-210.000
1576.8307,-210.000
1576.8707, -89.055
1576.9108,-210.000
1576.9508,-210.000
1576.9908,-210.000
1577.0308,-210.000
1577.0708,-210.000
1577.1108,-210.000
1577.1509,-210.000
1577.1909,-210.000
1577.2309,-210.000
1577.2709,-210.000
1577.3109,-210.000
1577.3509,-210.000
1577.3910,-210.000
1577.4310,-210.000
1577.4710,-210.000
1577.5110,-210.000
1577.5510,-210.000
1577.5910,-210.000
1577.6311,-210.000
1577.6711,-210.000
1577.7111,-210.000
1577.7511,-210.000
1577.7911,-210.000
1577.8311,-210.000
1577.8711,-210.000
1577.9112,-210.000
1577.9512, -89.249
1577.9912,-210.000
1578.0312,-210.000
1578.0712,-210.000
1578.1112,-210.000
1578.1513,-210.000
1578.1913,-210.000
1578.2313,-210.000
1578.2713,-210.000
1578.3113,-210.000
1578.3513,-210.000
1578.3914,-210.000
1578.4314,-210.000
1578.4714,-210.000
1578.5114,-210.000
1578.5514,-210.000
1578.5914,-210.000
1578.6315,-210.000
1578.6715,-210.000
1578.7115,-210.000
1578.7515,-210.000
1578.7915,-210.000
1578.8315,-210.000
1578.8715,-210.000
1578.9116,-210.000
1578.9516,-210.000
1578.9916,-210.000
1579.0316,-210.000
1579.0716,-210.000
1579.1116,-210.000
1579.1517,-210.000
1579.1917,-210.000
1579.2317,-210.000
1579.2717,-210.000
1579.3117,-210.000
1579.3517,-210.000
1579.3918,-210.000
1579.4318,-210.000
1579.4718,-210.000
1579.5118,-210.000
1579.5518,-210.000
1579.5918,-210.000
1579.6319,-210.000
1579.6719,-210.000
1579.7119,-210.000
1579.7519, -95.367
1579.7919,-210.000
1579.8319,-210.000
1579.8719,-210.000
1579.9120,-210.000
1579.9520,-210.000
1579.9920,-210.000
1580.0320,-210.000
1580.0720,-210.000
1580.1120,-210.000
1580.1521,-210.000
1580.1921,-210.000
1580.2321,-210.000
1580.2721,-210.000
1580.3121,-210.000
1580.3521,-210.000
1580.3922,-210.000
1580.4322,-210.000
1580.4722, -88.387
1580.5122,-210.000
1580.5522,-210.000
1580.5922,-210.000
1580.6323,-210.000
1580.6723,-210.000
1580.7123,-210.000
1580.7523,-210.000
1580.7923,-210.000
1580.8323,-210.000
1580.8723,-210.000
1580.9124,-210.000
1580.9524,-210.000
1580.9924,-210.000
1581.0324,-210.000
1581.0724,-210.000
1581.1124,-210.000
1581.1525,-210.000
1581.1925,-210.000
1581.2325,-210.000
1581.2725,-210.000
1581.3125,-210.000
1581.3525,-210.000
1581.3926,-210.000
1581.4326,-210.000
1581.4726,-210.000
1581.5126,-210.000
1581.5526,-210.000
1581.5926,-210.000
1581.6327,-210.000
1581.6727,-210.000
1581.7127,-210.000
1581.7527,-210.000
1581.7927,-210.000
1581.8327,-210.000
1581.8727,-210.000
1581.9128,-210.000
1581.9528,-210.000
1581.9928,-210.000
1582.0328,-210.000
1582.0728,-210.000
1582.1128,-210.000
1582.1529,-210.000
1582.1929,-210.000
1582.2329,-210.000
1582.2729,-210.000
1582.3129,-210.000
1582.3529,-210.000
1582.3930,-210.000
1582.4330,-210.000
1582.4730,-210.000
1582.5130,-210.000
1582.5530,-210.000
1582.5930,-210.000
1582.6331,-210.000
1582.6731,-210.000
1582.7131,-210.000
1582.7531,-210.000
1582.7931,-210.000
1582.8331,-210.000
1582.8731,-210.000
1582.9132,-210.000
1582.9532,-210.000
1582.9932,-210.000
1583.0332,-210.000
1583.0732,-210.000
1583.1132,-210.000
1583.1533,-210.000
1583.1933,-210.000
1583.2333,-210.000
1583.2733,-210.000
1583.3133,-210.000
1583.3533,-210.000
1583.3934,-210.000
1583.4334,-210.000
1583.4734,-210.000
1583.5134, -90.524
1583.5534,-210.000
1583.5934,-210.000
1583.6335,-210.000
1583.6735,-210.000
1583.7135,-210.000
1583.7535,-210.000
1583.7935,-210.000
1583.8335,-210.000
1583.8735,-210.000
1583.9136,-210.000
1583.9536,-210.000
1583.9936,-210.000
1584.0336,-210.000
1584.0736,-210.000
1584.1136,-210.000
1584.1537,-210.000
1584.1937,-210.000
1584.2337,-210.000
1584.2737,-210.000
1584.3137,-210.000
1584.3537,-210.000
1584.3938,-210.000
1584.4338,-210.000
1584.4738,-210.000
1584.5138,-210.000
1584.5538,-210.000
1584.5938,-210.000
1584.6339,-210.000
1584.6739,-210.000
1584.7139,-210.000
1584.7539,-210.000
1584.7939,-210.000
1584.8339,-210.000
1584.8739,-210.000
1584.9140,-210.000
1584.9540,-210.000
1584.9940,-210.000
1585.0340,-210.000
1585.0740,-210.000
1585.1140,-210.000
1585.1541,-210.000
1585.1941,-210.000
1585.2341,-210.000
1585.2741,-210.000
1585.3141,-210.000
1585.3541,-210.000
1585.3942,-210.000
1585.4342,-210.000
1585.4742,-210.000
1585.5142,-210.000
1585.5542,-210.000
1585.5942,-210.000
1585.6343,-210.000
1585.6743,-210.000
1585.7143,-210.000
1585.7543,-210.000
1585.7943,-210.000
1585.8343,-210.000
1585.8743,-210.000
1585.9144,-210.000
1585.9544,-210.000
1585.9944,-210.000
1586.0344,-210.000
1586.0744,-210.000
1586.1144,-210.000
1586.1545,-210.000
1586.1945,-210.000
1586.2345,-210.000
1586.2745,-210.000
1586.3145,-210.000
1586.3545,-210.000
1586.3946,-210.000
1586.4346,-210.000
1586.4746,-210.000
1586.5146,-210.000
1586.5546,-210.000
1586.5946,-210.000
1586.6347,-210.000
1586.6747,-210.000
1586.7147,-210.000
1586.7547,-210.000
1586.7947,-210.000
1586.8347,-210.000
1586.8747,-210.000
1586.9148,-210.000
1586.9548,-210.000
1586.9948,-210.000
1587.0348,-210.000
1587.0748,-210.000
1587.1148,-210.000
1587.1549,-210.000
1587.1949,-210.000
1587.2349,-210.000
1587.2749,-210.000
1587.3149,-210.000
1587.3549,-210.000
1587.3950,-210.000
1587.4350,-210.000
1587.4750,-210.000
1587.5150,-210.000
1587.5550,-210.000
1587.5950,-210.000
1587.6351,-210.000
1587.6751,-210.000
1587.7151,-210.000
1587.7551,-210.000
1587.7951,-210.000
1587.8351,-210.000
1587.8752,-210.000
1587.9152,-210.000
1587.9552,-210.000
1587.9952,-210.000
1588.0352,-210.000
1588.0752,-210.000
1588.1152,-210.000
1588.1553,-210.000
1588.1953,-210.000
1588.2353,-210.000
1588.2753,-210.000
1588.3153,-210.000
1588.3553,-210.000
1588.3954,-210.000
1588.4354,-210.000
1588.4754,-210.000
1588.5154,-210.000
1588.5554,-210.000
1588.5954,-210.000
1588.6355,-210.000
1588.6755,-210.000
1588.7155,-210.000
1588.7555,-210.000
1588.7955,-210.000
1588.8355,-210.000
1588.8756,-210.000
1588.9156,-210.000
1588.9556,-210.000
1588.9956,-210.000
1589.0356,-210.000
1589.0756,-210.000
1589.1156,-210.000
1589.1557,-210.000
1589.1957,-210.000
1589.2357,-210.000
1589.2757,-210.000
1589.3157,-210.000
1589.3557,-210.000
1589.3958,-210.000
1589.4358,-210.000
1589.4758,-210.000
1589.5158,-210.000
1589.5558,-210.000
1589.5958,-210.000
1589.6359,-210.000
1589.6759,-210.000
1589.7159,-210.000
1589.7559,-210.000
1589.7959,-210.000
1589.8359,-210.000
1589.8760,-210.000
1589.9160,-210.000
1589.9560,-210.000
1589.9960,-210.000
1590.0360,-210.000
1590.0760,-210.000
1590.1160,-210.000
1590.1561,-210.000
1590.1961,-210.000
1590.2361,-210.000
1590.2761,-210.000
1590.3161,-210.000
1590.3561,-210.000
1590.3962,-210.000
1590.4362,-210.000
1590.4762,-210.000
1590.5162,-210.000
1590.5562,-210.000
1590.5962,-210.000
1590.6363,-210.000
1590.6763,-210.000
1590.7163,-210.000
1590.7563,-210.000
1590.7963,-210.000
1590.8363,-210.000
1590.8764,-210.000
1590.9164,-210.000
1590.9564,-210.000
1590.9964,-210.000
1591.0364,-210.000
1591.0764,-210.000
1591.1164,-210.000
1591.1565,-210.000
1591.1965,-210.000
1591.2365,-210.000
1591.2765,-210.000
1591.3165,-210.000
1591.3565,-210.000
1591.3966,-210.000
1591.4366,-210.000
1591.4766,-210.000
1591.5166,-210.000
1591.5566,-210.000
1591.5966,-210.000
1591.6367,-210.000
1591.6767,-210.000
1591.7167,-210.000
1591.7567,-210.000
1591.7967,-210.000
1591.8367,-210.000
1591.8768,-210.000
1591.9168,-210.000
1591.9568,-210.000
1591.9968,-210.000
1592.0368,-210.000
1592.0768,-210.000
1592.1168,-210.000
1592.1569,-210.000
1592.1969,-210.000
1592.2369,-210.000
1592.2769, -96.338
1592.3169,-210.000
1592.3569,-210.000
1592.3970,-210.000
1592.4370,-210.000
1592.4770,-210.000
1592.5170,-210.000
1592.5570,-210.000
1592.5970,-210.000
1592.6371,-210.000
1592.6771,-210.000
1592.7171,-210.000
1592.7571,-210.000
1592.7971,-210.000
1592.8371,-210.000
1592.8772,-210.000
1592.9172,-210.000
1592.9572,-210.000
1592.9972,-210.000
1593.0372,-210.000
1593.0772,-210.000
1593.1172,-210.000
1593.1573,-210.000
1593.1973,-210.000
1593.2373,-210.000
1593.2773,-210.000
1593.3173,-210.000
1593.3573,-210.000
1593.3974,-210.000
1593.4374,-210.000
1593.4774,-210.000
1593.5174,-210.000
1593.5574,-210.000
1593.5974,-210.000
1593.6375,-210.000
1593.6775,-210.000
1593.7175,-210.000
1593.7575,-210.000
1593.7975,-210.000
1593.8375,-210.000
1593.8776,-210.000
1593.9176,-210.000
1593.9576,-210.000
1593.9976,-210.000
1594.0376,-210.000
1594.0776,-210.000
1594.1176,-210.000
1594.1577,-210.000
1594.1977,-210.000
1594.2377,-210.000
1594.2777,-210.000
1594.3177,-210.000
1594.3577,-210.000
1594.3978,-210.000
1594.4378,-210.000
1594.4778,-210.000
1594.5178,-210.000
1594.5578,-210.000
1594.5978,-210.000
1594.6379,-210.000
1594.6779,-210.000
1594.7179,-210.000
1594.7579,-210.000
1594.7979,-210.000
1594.8379,-210.000
1594.8780,-210.000
1594.9180,-210.000
1594.9580,-210.000
1594.9980,-210.000
1595.0380,-210.000
1595.0780,-210.000
1595.1180,-210.000
1595.1581,-210.000
1595.1981,-210.000
1595.2381,-210.000
1595.2781,-210.000
1595.3181,-210.000
1595.3581,-210.000
1595.3982,-210.000
1595.4382,-210.000
1595.4782,-210.000
1595.5182,-210.000
1595.5582,-210.000
1595.5982,-210.000
1595.6383,-210.000
1595.6783,-210.000
1595.7183,-210.000
1595.7583,-210.000
1595.7983,-210.000
1595.8383,-210.000
1595.8784,-210.000
1595.9184,-210.000
1595.9584,-210.000
1595.9984,-210.000
1596.0384,-210.000
1596.0784,-210.000
1596.1184,-210.000
1596.1585,-210.000
1596.1985,-210.000
1596.2385,-210.000
1596.2785,-210.000
1596.3185,-210.000
1596.3585,-210.000
1596.3986,-210.000
1596.4386,-210.000
1596.4786,-210.000
1596.5186, -90.753
1596.5586,-210.000
1596.5986,-210.000
1596.6387,-210.000
1596.6787,-210.000
1596.7187,-210.000
1596.7587,-210.000
1596.7987,-210.000
1596.8387,-210.000
1596.8788,-210.000
1596.9188,-210.000
1596.9588,-210.000
1596.9988,-210.000
1597.0388,-210.000
1597.0788,-210.000
1597.1188,-210.000
1597.1589,-210.000
1597.1989,-210.000
1597.2389,-210.000
1597.2789,-210.000
1597.3189,-210.000
1597.3589,-210.000
1597.3990,-210.000
1597.4390,-210.000
1597.4790,-210.000
1597.5190,-210.000
1597.5590,-210.000
1597.5990,-210.000
1597.6391,-210.000
1597.6791,-210.000
1597.7191,-210.000
1597.7591,-210.000
1597.7991,-210.000
1597.8391,-210.000
1597.8792,-210.000
1597.9192,-210.000
1597.9592,-210.000
1597.9992,-210.000
1598.0392,-210.000
1598.0792,-210.000
1598.1192,-210.000
1598.1593,-210.000
1598.1993,-210.000
1598.2393,-210.000
1598.2793,-210.000
1598.3193,-210.000
1598.3593,-210.000
1598.3994,-210.000
1598.4394,-210.000
1598.4794,-210.000
1598.5194,-210.000
1598.5594,-210.000
1598.5994,-210.000
1598.6395,-210.000
1598.6795,-210.000
1598.7195,-210.000
1598.7595,-210.000
1598.7995,-210.000
1598.8395,-210.000
1598.8796,-210.000
1598.9196,-210.000
1598.9596,-210.000
1598.9996,-210.000
1599.0396,-210.000
1599.0796,-210.000
1599.1196,-210.000
1599.1597,-210.000
1599.1997,-210.000
1599.2397,-210.000
1599.2797,-210.000
1599.3197,-210.000
1599.3597,-210.000
1599.3998,-210.000
1599.4398,-210.000
1599.4798,-210.000
1599.5198,-210.000
1599.5598,-210.000
1599.5998,-210.000
1599.6399,-210.000
1599.6799,-210.000
1599.7199,-210.000
1599.7599,-210.000
1599.7999,-210.000
1599.8399,-210.000
1599.8800,-210.000
1599.9200,-210.000
1599.9600,-210.000
1600.0000,-210.000
